Time   C(t)   
ps   
0           1           1  1.19854e-09   0.0283468
10    0.714847    0.891112    0.518069   0.0150581
20    0.698838    0.884999   -0.413285   0.0017694
30    0.679459    0.877599   -0.504857  0.00134298
40    0.671978    0.874742    -1.80614  0.000713006
50    0.665199    0.872153   -0.598429  0.000846064
60    0.655057     0.86828   -0.505584  0.000919408
70    0.646811    0.865131    -1.80741  0.00060977
80    0.642862    0.863624    -1.90116  0.000347254
90    0.639866    0.862479   0.0511215  0.000696296
100    0.628936    0.858306    -2.55062  0.000589108
110    0.628083     0.85798    -1.62199  0.000338063
120    0.622175    0.855724    -2.45977  0.000675812
130    0.614567    0.852819    -1.52788  0.00044798
140    0.613215    0.852303    -2.45932  0.000171605
150    0.611135    0.851508   -0.693362  0.000389391
160    0.605427    0.849329     -2.4595  0.000547209
170    0.600191    0.847329    -2.45932  0.000415179
180    0.597124    0.846158    0.143058  0.000440425
190    0.591382    0.843966     -2.0874  0.000489697
200     0.58733    0.842418    -1.25061  0.000211433
210    0.587154    0.842351    -3.94911  9.05246e-05
220    0.585519    0.841727    -2.08885  0.000382656
230    0.579501    0.839429    -2.18151  0.000456324
240    0.576393    0.838242     0.42241  0.000396472
250    0.571571    0.836401    -1.15895  0.000421569
260    0.567961    0.835022    -1.71693  0.000165877
270    0.568254    0.835134    -1.99537  0.000215381
280    0.563654    0.833377    -3.57682  0.000484967
290    0.558554     0.83143   -0.786117  0.000400138
300    0.555651    0.830321    -4.13407  4.52429e-05
310    0.557649    0.831084    -2.55462  0.000205252
320    0.551546    0.828754    -2.27554  0.000574124
330    0.546167      0.8267   -0.600518  0.000181481
340    0.547916    0.827368   -0.879779  0.000194538
350    0.542276    0.825214    -1.43821  0.000724924
360    0.533418    0.821831     -3.2038  0.000281796
370     0.53664    0.823062    -1.99709  0.000122344
380    0.530971    0.820897    -3.20571  0.000282955
390    0.530981    0.820901    -1.25316  0.000135213
400    0.528267    0.819864    -3.11332  0.000494909
410    0.521083    0.817121    -2.18233  0.000408831
420     0.52009    0.816742    -1.25388  6.21617e-05
430     0.51984    0.816647    -1.99709  3.74466e-05
440    0.519341    0.816456    -2.36956  0.000174424
450    0.516351    0.815314    -2.46323  0.000573486
460    0.507871    0.812076   -0.509216  0.000449651
470    0.507358     0.81188    -2.09021  5.13852e-05
480    0.506844    0.811684    -2.55616  0.000214022
490    0.503078    0.810246    -2.37047  0.000126675
500     0.50431    0.810716   -0.975438  0.000139725
510    0.500283    0.809179    -2.83524  0.000315328
520    0.498004    0.808308    -3.20725  0.000265878
530    0.494966    0.807148    -2.09176  0.000341807
540    0.491167    0.805698    -3.29965  0.000443165
550    0.486102    0.803764    -3.76423  0.000343244
560    0.484302    0.803076     -4.5089  0.000419775
570    0.477707    0.800558    -1.90416  0.000193256
580    0.480437      0.8016    -2.37065  9.30697e-05
590    0.475845    0.799847    -4.69477  0.000295253
600    0.474532    0.799345    -2.74249  6.81639e-05
610    0.474482    0.799326    -3.67302  0.00022047
620    0.470123    0.797662    -4.60229  0.000372979
630    0.467023    0.796478    -4.32366  0.000284944
640    0.464424    0.795486    -4.22982  0.000209256
650    0.462838     0.79488    -3.02175  0.000324316
660    0.457938    0.793009    -3.76569  0.000222912
670    0.458379    0.793177    -3.95192   0.0001599
680     0.45474    0.791788    -4.04404  0.000377123
690    0.450837    0.790297    -4.32284  0.000173362
700    0.451272    0.790464    -3.20834  0.000173949
710    0.447358    0.788969    -4.88246  0.000199735
720    0.447278    0.788938    -4.23073  0.000418408
730     0.43899    0.785773    -5.43925  0.00031613
740    0.440955    0.786524    -4.41796  9.88767e-05
750    0.437012    0.785018     -2.8366  0.00011162
760    0.438723    0.785671    -3.48833  0.000150837
770    0.433995    0.783866    -6.55575  0.000576366
780    0.427195    0.781269    -5.25356  0.000358026
790    0.426835    0.781132    -5.53328  0.000423786
800     0.41872    0.778033    -6.08998  0.00067009
810    0.413433    0.776014    -6.09026  0.000270185
820    0.413316     0.77597    -6.37015  0.000154382
830    0.410345    0.774835     -3.4876  0.000388245
840    0.405551    0.773004    -5.34732  0.00042793
850    0.401787    0.771567    -5.90538  0.000389883
860    0.397753    0.770027    -4.97467  0.000182408
870    0.398139    0.770174    -6.37024  6.56828e-05
880     0.39644    0.769525    -6.55593  0.000313687
890    0.391865    0.767778    -5.44025  0.000418752
900    0.388065    0.766327    -6.18437  0.000210434
910    0.387656    0.766171    -4.97521  0.00039441
920    0.380177    0.763315    -5.71915  0.000119589
930    0.385264    0.765258    -5.81408  -5.00113e-05
940    0.381177    0.763697    -6.74289  0.000172682
950    0.381811    0.763939    -6.09207  0.00021276
960    0.376922    0.762072    -5.71951  0.000449948
970    0.372812    0.760503    -6.09153  0.000490554
980     0.36711    0.758326    -6.83547  0.000240801
990    0.367996    0.758664    -7.76609  0.000294551
1000    0.361219    0.756076    -6.09162   0.0002948
1010      0.3621    0.756412    -5.44189  1.78173e-05
1020    0.360863     0.75594    -6.09253  7.0788e-05
1030    0.360684    0.755872    -4.23372  7.09981e-05
1040    0.359443    0.755398    -6.74408  0.000217192
1050     0.35634    0.754213    -6.37133  0.000483562
1060    0.349772    0.751705    -6.46327  0.000484483
1070    0.346651    0.750513    -6.83556  0.000125879
1080    0.347254    0.750743    -7.39471  3.29345e-05
1090    0.345992    0.750261    -7.85894  0.00020657
1100    0.343123    0.749166    -8.50994  0.000113346
1110    0.343725    0.749396    -7.30205  6.68019e-06
1120    0.342989    0.749115    -10.5573  0.000221087
1130    0.339303    0.747707    -7.76655  4.6961e-05
1140     0.34205    0.748756    -7.20975   2.058e-05
1150    0.338892     0.74755    -8.79002  0.000329632
1160    0.335457    0.746239    -7.39481  0.000343813
1170    0.332015    0.744924    -7.58077   0.0001963
1180    0.331531    0.744739    -7.30305  0.000142933
1190    0.329157    0.743833     -8.1392  0.000264761
1200    0.326236    0.742717    -8.88268  0.000387081
1210    0.321415    0.740876    -7.58068  0.000645146
1220    0.313333     0.73779     -8.6017  3.6329e-05
1230    0.320688    0.740599     -9.0701  -0.000234136
1240    0.318016    0.739578    -8.79075  0.000308296
1250    0.314523    0.738244    -8.32561  0.000363341
1260    0.310749    0.736803    -9.90679  0.000336929
1270    0.307784    0.735671    -9.72128  0.000351383
1280    0.303722     0.73412    -11.0218  -1.64434e-05
1290    0.308113    0.735797    -10.1859  2.5022e-05
1300    0.303221    0.733929     -10.651  0.000476046
1310    0.298592    0.732161    -10.8364  0.000504564
1320     0.29313    0.730075    -10.9294  0.000423388
1330    0.290124    0.728928    -9.16231  0.000259735
1340    0.287935    0.728092    -11.3008  8.16897e-05
1350     0.28849    0.728304     -8.8845  0.00024717
1360    0.282992    0.726204    -10.4642  0.000343844
1370    0.281613    0.725678    -10.8366  0.000220743
1380    0.278577    0.724518    -11.8586  0.00031784
1390    0.275257     0.72325    -10.4648  8.35553e-05
1400    0.276906     0.72388    -11.2089  -0.000248192
1410    0.280221    0.725146     -10.466  -9.62377e-05
1420    0.278831    0.724615    -10.4659  1.42738e-05
1430    0.279935    0.725037    -11.0229  5.61148e-05
1440    0.277708    0.724186    -10.6524  0.000389791
1450    0.272139     0.72206    -11.5806  0.000279121
1460    0.272126    0.722055    -12.5108  -5.44131e-05
1470    0.273228    0.722475    -10.4662  1.5305e-05
1480     0.27182    0.721938    -11.0246  0.000238717
1490    0.268453    0.720652    -10.7463  0.000239155
1500    0.267037    0.720111    -11.8603  2.97755e-05
1510    0.267858    0.720425    -12.5119  0.00014216
1520    0.264193    0.719026    -11.3036  0.00026857
1530    0.262486    0.718374    -13.1622  0.000156856
1540    0.261056    0.717828     -13.441  0.00012911
1550    0.259904    0.717388    -13.9061  -2.54825e-05
1560    0.261566    0.718022    -13.2557  5.92291e-05
1570     0.25872    0.716935    -14.2791  0.000256762
1580    0.256431    0.716061    -13.4424  0.000370528
1590    0.251309    0.714106    -13.6271  0.000258011
1600    0.251271    0.714091    -12.4199  4.63441e-05
1610    0.250382    0.713752    -11.3036  3.84748e-06
1620    0.251194    0.714062    -13.9075  -5.28529e-05
1630    0.251439    0.714155    -11.8618  0.000117638
1640    0.248841    0.713163    -12.3265  0.000188956
1650     0.24766    0.712712     -13.256  -5.28529e-05
1660    0.249898    0.713567    -12.8845  4.71011e-05
1670    0.246718    0.712353     -11.211  1.83485e-05
1680    0.249531    0.713427    -11.9556  0.000190446
1690    0.242909    0.710898    -12.7914  0.000218941
1700    0.245152    0.711755    -11.8623  -3.81328e-05
1710    0.243672    0.711189    -13.0702  9.07831e-05
1720    0.243336    0.711061    -12.4202  -0.000225177
1730    0.248175    0.712909    -11.0263  -0.000225427
1740    0.247845    0.712783    -11.5839  0.000148372
1750    0.245208    0.711776    -12.0488  0.000235182
1760    0.243141    0.710987     -12.327  -2.42174e-05
1770    0.245692    0.711961    -11.7699  6.27488e-05
1780    0.241886    0.710508    -13.2577  -0.000111239
1790    0.247917     0.71281    -12.2362  -8.18774e-05
1800    0.243524    0.711133    -12.6066  0.000120471
1810    0.245508     0.71189    -12.2347  0.000164761
1820    0.240229    0.709875    -13.2581  0.000324817
1830    0.239011     0.70941    -12.3279  0.000180168
1840    0.236625    0.708499    -13.4441  -9.13143e-06
1850    0.239194    0.709479    -13.8154  -0.000169514
1860    0.240016    0.709793    -13.3509  0.000137079
1870    0.236452    0.708432    -15.3963  0.000195714
1880    0.236101    0.708299    -13.3508  0.00021105
1890    0.232231    0.706821     -14.653  0.000314086
1900     0.22982      0.7059    -13.7222  -0.000125926
1910     0.23475    0.707782     -14.561  0.000183235
1920    0.226155      0.7045    -13.5359  0.000389095
1930    0.226968    0.704811    -13.9093  -0.000273159
1940    0.231618    0.706587    -15.0252  -8.15891e-05
1950      0.2286    0.705434    -14.0037  0.000331787
1960    0.224982    0.704053    -16.8847  0.000125279
1970    0.226094    0.704477    -14.4678  -0.000126114
1980    0.227505    0.705016    -16.1417  0.000185303
1990    0.222388    0.703062     -13.816  -7.85962e-06
2000    0.227662    0.705076    -14.0959  -0.000111387
2010    0.224616    0.703913    -13.8169  0.000155997
2020    0.224542    0.703884    -14.1888  0.000171489
2030    0.221186    0.702603    -12.9802  0.000216521
2040    0.220211    0.702231    -14.7465  7.83578e-06
2050    0.221029    0.702543    -15.3053  0.000247568
2060     0.21526     0.70034    -14.0018  0.000187801
2070    0.217273    0.701109    -15.5834  -0.000261585
2080    0.220492    0.702338    -14.6544  -3.67045e-05
2090    0.218007    0.701389    -13.8181  0.000339068
2100     0.21371    0.699748    -14.0029  5.35309e-05
2110    0.216937     0.70098    -16.6057  8.43041e-05
2120    0.212024    0.699104    -16.3274  0.000235049
2130    0.212236    0.699185    -15.2127  -0.000111917
2140    0.214263    0.699959    -15.0267  -2.12207e-05
2150     0.21266    0.699347    -15.2124  0.000327291
2160    0.207717     0.69746    -16.0484  0.000540511
2170     0.20185    0.695219    -15.8618  0.000116132
2180    0.205394    0.696573    -15.3981  -0.000172199
2190    0.205294    0.696534    -14.2829  -6.61828e-05
2200    0.206718    0.697078    -14.0976  0.000162662
2210    0.202041    0.695292    -14.3754  0.000269663
2220    0.201325    0.695019    -14.5617  -2.01277e-05
2230    0.202443    0.695446    -14.0973  0.000408942
2240    0.193146    0.691896    -15.4915  0.000163896
2250    0.199165    0.694194    -14.7486  -0.000157285
2260    0.196291    0.693097    -12.7951  0.000318542
2270    0.192794    0.691761    -14.3757  0.000396331
2280    0.188365     0.69007     -14.934  0.000212229
2290     0.18855    0.690141    -15.1193  8.95567e-05
2300    0.186574    0.689386    -13.9113  -6.4934e-05
2310    0.189849    0.690636    -14.5627  -0.000157651
2320    0.189727     0.69059    -12.7033  0.00033771
2330    0.183094    0.688057    -14.4686  0.000369216
2340    0.182342     0.68777    -12.6088  -1.79268e-05
2350    0.183453    0.688194    -14.5622  0.000184437
2360    0.178654    0.686362    -13.1677  0.00024685
2370    0.178516    0.686309    -13.0743  -0.000220252
2380    0.183059    0.688044    -13.2612  2.94231e-05
2390    0.177927    0.686084    -13.7258  0.000419947
2400     0.17466    0.684837    -13.7264  7.65778e-05
2410    0.176396    0.685499     -13.819  -9.54181e-05
2420    0.176568    0.685565    -13.1683  0.00010839
2430    0.174228    0.684672    -13.5402  0.000139951
2440    0.173769    0.684496    -11.9595  0.00010896
2450    0.172049    0.683839    -12.9823  0.000109162
2460    0.171586    0.683663    -13.2623  0.000109552
2470    0.169858    0.683003    -12.9829  0.000109747
2480    0.169391    0.682825    -11.9604  9.42789e-05
2490    0.167972    0.682283    -13.5412  9.45128e-05
2500    0.167501    0.682103     -13.448  1.54138e-05
2510    0.167664    0.682165    -12.2399  0.000285725
2520    0.161786    0.679921    -14.2843  0.000126925
2530    0.165125    0.681196    -14.5648  0.000111932
2540    0.159548    0.679066    -14.4705  0.000287207
2550    0.159381    0.679002     -15.401  -3.12723e-05
2560    0.160173    0.679305    -15.4018  0.000208717
2570    0.155207    0.677408    -14.2853  0.000385169
2580     0.15247    0.676363    -12.7046  0.000193834
2590     0.15133    0.675928    -14.2857  8.19795e-05
2600     0.15083    0.675737    -13.4479  0.000162693
2610    0.148076    0.674685    -14.0992  0.000130764
2620    0.148215    0.674738    -14.0995  -6.22876e-05
2630    0.149322    0.675161    -13.5422  6.68228e-05
2640    0.146878    0.674228    -13.0775  0.000131498
2650    0.146692    0.674157    -13.6354  0.000132021
2660    0.144238     0.67322    -13.9141  0.000213314
2670    0.142426    0.672528     -13.728  -9.46768e-05
2680    0.146131    0.673943    -14.3789  1.93007e-05
2690     0.14204     0.67238    -14.0065  0.000230546
2700     0.14152    0.672182    -13.1701  0.000231428
2710    0.137411    0.670613    -14.3791  3.58462e-05
2720    0.140804    0.671908    -15.0301  -4.53055e-05
2730    0.138317    0.670959    -14.1007  0.000216178
2740     0.13648    0.670257    -15.6821  0.000348013
2750    0.131357    0.668301    -14.9366  0.000283071
2760    0.130819    0.668095    -14.3793  0.000119714
2770    0.128963    0.667387    -14.5656  0.000383429
2780     0.12315    0.665167    -13.5417  0.000549112
2790    0.117981    0.663193    -14.6576  0.000154389
2800    0.120062    0.663988    -14.0078  -9.2718e-05
2810    0.119835    0.663901    -15.1231  0.000221477
2820    0.115633    0.662296    -13.8215  0.000288159
2830    0.114072      0.6617    -14.8445  0.000123078
2840    0.113171    0.661357    -14.3795  0.000439419
2850    0.105284    0.658345    -12.7985  0.000323592
2860    0.106699    0.658885    -13.6361  -4.17076e-05
2870    0.106118    0.658663    -12.8918  0.000175126
2880    0.103197    0.657548    -12.0552  0.000175462
2890    0.102608    0.657323    -12.9855  0.000125887
2900    0.100679    0.656586      -15.31  0.000461529
2910   0.0933779    0.653798    -15.2156  0.000210559
2920   0.0964678    0.654978     -15.589  -0.000208553
2930   0.0975489    0.655391     -15.868  7.70073e-05
2940   0.0949277     0.65439    -14.4735  0.000262475
2950   0.0922994    0.653386    -15.1239  0.000263216
2960   0.0896634     0.65238    -16.4254  9.48485e-05
2970   0.0904025    0.652662     -15.961  1.06998e-05
2980   0.0894494    0.652298    -15.0312  -7.41977e-05
2990   0.0918864    0.653229    -15.6821  -4.02167e-05
3000   0.0902537    0.652605    -14.4732  0.000214539
3010   0.0875956     0.65159    -15.2173  4.47202e-05
3020   0.0893593    0.652264    -16.7053  0.000164551
3030   0.0843046    0.650334    -16.6118  0.000249971
3040   0.0843599    0.650355    -15.8679  9.7112e-05
3050   0.0823624    0.649592     -15.682  0.000251439
3060   0.0793311    0.648434    -15.5889  0.000372167
3070    0.074919     0.64675    -16.3321  -4.87007e-06
3080   0.0794285    0.648472    -15.8682  8.1807e-05
3090   0.0732829    0.646125    -15.2168  0.000288042
3100   0.0736677    0.646272    -16.0541  0.00027209
3110   0.0678411    0.644047    -17.2625  0.000531661
3120   0.0630344    0.642211    -16.9827  0.00015254
3130   0.0647903    0.642882    -17.6343  0.000274806
3140   0.0575383    0.640113    -18.2845  0.000361717
3150    0.057556    0.640119    -16.2393  -7.12788e-05
3160   0.0589639    0.640657    -16.3331  0.000137547
3170    0.054805    0.639069    -17.1704  0.000416489
3180   0.0506341    0.637476    -15.7752  0.000295456
3190   0.0488959    0.636812    -15.4962  5.1713e-05
3200   0.0495999    0.637081    -15.3105  0.000174658
3210   0.0454027    0.635479    -15.6831  0.000490445
3220    0.039791    0.633336    -16.1473  0.000210793
3230   0.0411869    0.633869    -16.0544  0.000194356
3240   0.0359038    0.631851     -17.821  0.000176804
3250   0.0376508    0.632518    -16.9846  7.20203e-05
3260   0.0344634    0.631301    -15.3114  0.000107195
3270   0.0355069      0.6317    -16.1483  0.000213985
3280   0.0301837    0.629667    -15.9626  0.000657134
3290   0.0223642    0.626681    -15.2174  0.000339482
3300   0.0233941    0.627074    -16.4271  -0.000334151
3310   0.0290472    0.629233    -15.0334  -0.000156848
3320   0.0265311    0.628272    -17.3581  0.000626361
3330     0.01652    0.624449    -16.2409  0.000806232
3340   0.0104064    0.622115     -17.171  0.00037987
3350  0.00892262    0.621548    -16.0553  -3.04923e-05
3360   0.0110163    0.622348     -15.684  0.00011315
3370  0.00665961    0.620684    -15.8696  0.000364456
3380  0.00372714    0.619564    -15.9624  -1.20892e-05
3390   0.0069014    0.620776    -16.3353  4.23942e-05
3400  0.00287925    0.619241    -16.1487  0.00024045
3410   0.0020924     0.61894    -16.8926  -2.96416e-05
3420  0.00347208    0.619467    -16.5206  -6.57532e-05
3430  0.00340746    0.619442    -16.1495  0.000169585
3440  8.03867e-05    0.618172    -15.9631  0.000224295
3450  -0.00107843    0.617729     -17.079  7.97078e-05
3460  -0.00151377    0.617563    -15.8707  0.000189244
3470  -0.00486332    0.616284    -16.0559  -4.74672e-05
3480  -0.000564424    0.617926    -16.3355  -1.04815e-05
3490  -0.00465369    0.616364     -16.149  9.85791e-05
3500  -0.00253601    0.617173    -15.4996  -6.55191e-05
3510  -0.00334331    0.616864    -16.3361  -4.75921e-05
3520  -0.00158417    0.617536    -16.1509  0.000319986
3530  -0.00974303    0.614421    -16.5211  0.00032022
3540  -0.00798857    0.615091    -17.1727  -0.000286348
3550  -0.00401606    0.616608    -18.5679  8.21896e-05
3560  -0.00963236    0.614463    -16.2438  0.000543984
3570  -0.0148957    0.612453    -16.1499  0.000379004
3580  -0.0172124    0.611568    -16.5222  -4.61795e-05
3590  -0.0139722    0.612806    -16.2433  -0.000120198
3600  -0.0148085    0.612486    -15.2206  -0.000102302
3610  -0.0119261    0.613587    -16.9876  8.40393e-05
3620  -0.0164893    0.611845    -16.0573  -9.59178e-06
3630  -0.0117343     0.61366    -17.2663  -0.000345405
3640  -0.00958116    0.614482    -17.0807  0.000102661
3650  -0.0137875    0.612876     -15.872  2.74797e-05
3660  -0.0101308    0.614273    -16.8017  -0.000140856
3670  -0.0109704    0.613952    -16.2441  0.000121727
3680  -0.0125653    0.613343     -16.151  -2.86817e-05
3690  -0.0103967    0.614171    -17.6391  -6.62215e-05
3700  -0.0112409    0.613849    -15.7791  -8.55924e-05
3710  -0.00868489    0.614825    -16.5245  2.79871e-05
3720  -0.0118006    0.613635    -18.3828  0.00027415
3730  -0.0141679    0.612731    -16.8017  0.00012314
3740  -0.0142634    0.612695    -17.0813  0.000218831
3750  -0.0185445     0.61106    -17.6392  -6.65883e-05
3760  -0.0129317    0.613203     -17.175  -4.69053e-05
3770  -0.0176064    0.611418    -17.5464  0.000124131
3780  -0.0154143    0.612255     -17.546  0.000239951
3790  -0.0224054    0.609585    -16.8018  0.000335868
3800  -0.0221316     0.60969    -16.7097  1.09888e-05
3810  -0.0226252    0.609501    -17.9182  -8.52177e-05
3820  -0.0204273    0.610341    -17.7326  8.81757e-05
3830  -0.0243887    0.608828    -18.4765  0.000223054
3840  -0.0248884    0.608637     -17.919  0.000204736
3850  -0.0284834    0.607264    -18.7551  0.000127698
3860  -0.0274423    0.607662    -19.2197  -0.000181869
3870  -0.0248461    0.608653     -18.848  -4.632e-05
3880  -0.0265159    0.608016    -19.6854  0.000108858
3890  -0.0270232    0.607822     -17.454  7.03345e-05
3900  -0.0279226    0.607479    -17.6392  -4.66165e-05
3910  -0.0260909    0.608178    -18.5698  -8.56938e-05
3920  -0.0262087    0.608133    -17.3609  1.18474e-05
3930  -0.0263278    0.608088    -18.0122  0.000227721
3940  -0.0307631    0.606394    -17.3615  0.000110161
3950  -0.0285311    0.607246    -17.5468  5.20407e-05
3960   -0.031804    0.605996    -17.4538  5.17675e-05
3970  -0.0295664    0.606851    -17.8253  -0.000145133
3980  -0.0289013    0.607105    -18.1054  9.16643e-05
3990  -0.0313997    0.606151     -18.012  0.000190797
4000  -0.0327172    0.605648    -18.1977  0.000231217
4010   -0.036024    0.604385    -18.6626  0.00027159
4020  -0.0381491    0.603574    -18.4761  -0.000225286
4030  -0.0315183    0.606106    -18.2912  -0.000364964
4040  -0.0308498    0.606361    -18.4773  0.000212799
4050  -0.0357743     0.60448    -17.7329  9.2952e-05
4060  -0.0327088    0.605651    -18.1053  7.38934e-05
4070  -0.0372522    0.603916     -18.849  0.000394847
4080  -0.0406058    0.602635    -17.4544  5.42805e-05
4090  -0.0383378    0.603501    -19.5009  -0.000146569
4100  -0.0376744    0.603755    -18.1057  0.00013537
4110  -0.0410452    0.602468    -17.5471  0.000297259
4120  -0.0436196    0.601485    -19.6857  0.000197096
4130  -0.0449871    0.600962    -18.5699  7.61177e-05
4140  -0.0451419    0.600903    -17.6401  -0.000106438
4150  -0.0428583    0.601775    -18.6634  1.55857e-05
4160  -0.0454536    0.600784    -17.6407  9.6784e-05
4170   -0.044794    0.601036    -18.4779  0.000117794
4180  -0.0478095    0.599885    -17.8265  5.65205e-05
4190  -0.0459244    0.600604    -17.5481  -0.000250338
4200  -0.0428027    0.601797    -18.0133  -0.000333269
4210   -0.039259     0.60315    -17.9207  0.000159298
4220  -0.0459887     0.60058    -16.8053  0.00024141
4230  -0.0440872    0.601306    -17.8276  -2.53491e-05
4240  -0.0454817    0.600774    -18.1067  0.000160375
4250  -0.0472947    0.600081    -18.5711  0.000202302
4260  -0.0495278    0.599229     -18.571  -2.52711e-05
4270  -0.0467893    0.600274    -16.9904  3.74539e-05
4280  -0.0502768    0.598942    -17.6411  9.94766e-05
4290  -0.0487788    0.599514    -16.5261  -4.0194e-06
4300  -0.0501964    0.598973    -16.4332  -4.26136e-06
4310  -0.0486936    0.599547    -17.1767  -2.49745e-05
4320   -0.049697    0.599164    -16.8054  -6.72283e-05
4330   -0.047349     0.60006    -16.9915  0.000205923
4340  -0.0538154    0.597591      -17.27  0.000437335
4350  -0.0560957     0.59672     -17.363  5.98062e-05
4360  -0.0550115    0.597134    -16.6191  8.14561e-05
4370  -0.0577249    0.596098     -17.549  0.000102559
4380  -0.0570627    0.596351    -17.4565  8.20257e-05
4390  -0.0593654    0.595472    -16.9912  3.95847e-05
4400  -0.0578544    0.596049    -16.6201  -0.000151346
4410  -0.0563385    0.596628    -16.0619  8.25096e-05
4420  -0.0595046    0.595419    -16.4333  0.000231787
4430  -0.0609742    0.594858    -17.2701  0.000211386
4440  -0.0637323    0.593804    -17.5493  0.000190618
4450  -0.0647866    0.593402    -17.5496  -4.46264e-05
4460  -0.0628398    0.594145    -17.6431  0.000127487
4470  -0.0673363    0.592428    -16.7133  0.000579698
4480  -0.0744338    0.589718    -17.4564  0.000603142
4490  -0.0793992    0.587822    -17.6417  -0.000280792
4500  -0.0688179    0.591862     -16.527  -0.00023711
4510   -0.074657    0.589633    -17.9219  0.000476514
4520  -0.0783482    0.588223    -16.9922  0.000282836
4530  -0.0803137    0.587473    -16.8062  8.80431e-05
4540  -0.0801091    0.587551    -17.8289  8.85818e-05
4550  -0.0820853    0.586796    -17.3639  0.00030728
4560  -0.0862547    0.585204    -17.8285  1.64658e-06
4570  -0.0821183    0.586784    -16.8991  -0.000129204
4580  -0.0836706    0.586191    -17.0854  0.000309341
4590  -0.0883051    0.584421    -16.9923  0.000266143
4600  -0.0889934    0.584158    -16.3419  0.000135159
4610  -0.0910083    0.583389    -17.2711  2.95006e-06
4620  -0.0890524    0.584136    -16.6213  -8.52257e-05
4630  -0.0893037     0.58404    -15.9704  6.95385e-05
4640  -0.0904432    0.583605    -16.1564  0.000269693
4650  -0.0946976     0.58198    -17.4579  0.000359454
4660  -0.0976323    0.580859    -15.9696  0.00022712
4670    -0.09924    0.580245    -16.5276  -0.000196526
4680  -0.0937018     0.58236    -16.2497  -0.00015183
4690  -0.0962034    0.581405    -16.0627  3.87914e-06
4700  -0.0937793    0.582331    -16.7143  0.000161687
4710  -0.0994372     0.58017    -16.0631  4.89578e-05
4720  -0.0947585    0.581957    -15.1343  -0.000220611
4730  -0.0950249    0.581855    -14.5763  -6.37162e-05
4740  -0.0934842    0.582443    -14.2978  7.21138e-05
4750  -0.0964672    0.581304    -14.8559  0.000389618
4760   -0.101277    0.579468    -16.2496  0.000209045
4770   -0.100648    0.579708      -16.25  0.000164816
4780   -0.104573    0.578209    -14.8548  0.000233488
4790   -0.105318    0.577925    -14.8553  0.000143229
4800   -0.107437    0.577115    -15.8776  -1.67016e-05
4810   -0.104984    0.578052    -15.5063  9.84464e-05
4820   -0.109406    0.576363    -15.6919  0.000328111
4830   -0.111546    0.575546     -16.436  5.31096e-05
4840   -0.110469    0.575958    -16.1574  0.000192148
4850   -0.115389    0.574079    -15.5987  0.000331092
4860    -0.11709    0.573429    -16.2492  3.14131e-05
4870   -0.116017    0.573839    -15.3208  3.17954e-05
4880   -0.117726    0.573186    -16.0639  0.000148013
4890   -0.118978    0.572708    -15.0413  0.000265175
4900    -0.12303    0.571161    -15.6917  -0.000131179
4910   -0.116354     0.57371    -15.0423  -0.000434854
4920   -0.114333    0.574482    -15.2277  0.000219604
4930   -0.120746    0.572033    -14.8555  0.000102123
4940   -0.116375    0.573702    -14.5771  -0.00024955
4950   -0.115755    0.573939    -14.3911  0.000220907
4960   -0.120793    0.572015    -14.6699  0.000410269
4970    -0.12396    0.570806    -14.6697  0.00022264
4980   -0.125246    0.570315    -13.6467  -0.00015595
4990   -0.120841    0.571997    -14.7632  -0.00053454
