Time   C(t)   
ps   
0           1           1  1.45681e-10   0.0339199
10    0.655798    0.987602  -0.0534827   0.0172108
20    0.655783    0.987601  0.00772595  0.000501812
30    0.645762     0.98724   -0.360184  0.000752923
40    0.640725    0.987059    0.314398  0.000420725
50    0.637347    0.986937    -0.14579  0.000756067
60    0.625603    0.986514   0.0383152  0.000673082
70    0.623886    0.986452    0.191561  0.00013015
80       0.623    0.986421  -0.0843415   0.0004242
90    0.615402    0.986147    0.375726  0.000257069
100    0.617859    0.986235    0.375606  0.000174001
110    0.611922    0.986022     0.22224  0.000257814
120    0.612703     0.98605    0.528882  -0.000162086
130    0.615163    0.986138    0.467404  0.000385314
140    0.604996    0.985772    0.406226  0.000385481
150    0.607454    0.985861   -0.053902  4.93139e-05
160     0.60401    0.985737    0.283539  0.000725287
170    0.592948    0.985338    0.253039  9.16749e-05
180    0.602177    0.985671    0.130083  -0.000330624
190     0.59956    0.985576    0.283419  0.000473678
200    0.592703    0.985329    0.283329  0.000389451
210    0.591771    0.985296    0.160732  0.000645694
220    0.579789    0.984864    0.774346  -0.000119224
230    0.594156    0.985382     1.08078  9.46522e-05
240    0.577896    0.984796    0.559681  0.000519764
250    0.583761    0.985007    0.590271  0.00018062
260    0.574284    0.984666    0.927532  0.000393257
270    0.575896    0.984724    0.743427  0.000523242
280    0.563819    0.984289     0.62101  0.000438103
290    0.567133    0.984408    0.283629  -7.45505e-05
300     0.56531    0.984343    0.344718  -7.49618e-05
310    0.568633    0.984462    0.191082  0.000397396
320    0.557362    0.984056    0.344688  0.000655541
330    0.555522     0.98399     0.62056  0.000140986
340    0.554542    0.983955    0.191262  -0.000117075
350    0.557863    0.984074    0.681589  1.24961e-05
360    0.554292    0.983946    0.620501  0.000832021
370    0.541223    0.983475    0.528762  0.000487494
380    0.544542    0.983595    0.681979  0.00027312
390    0.535761    0.983278    0.774016  5.67615e-05
400    0.543407    0.983554    0.589792  1.42336e-05
410    0.535476    0.983268     1.01939  0.000403681
420    0.535334    0.983263    0.804695  0.000361982
430    0.528236    0.983007    0.774016  5.79178e-05
440    0.534175    0.983221    0.896673  0.000102016
450    0.526196    0.982934     0.62065  0.000624594
460    0.521683    0.982771    0.865904    -0.00029
470    0.531996    0.983143     1.04959  0.000277674
480     0.51613    0.982571     0.65127  0.000932634
490    0.513343    0.982471     1.01918   0.0001481
500    0.513168    0.982464    0.681619  0.000761527
510    0.498113    0.981922    0.988591  0.000498834
520    0.503191    0.982105     1.29502  -0.000332528
530    0.504763    0.982162     1.11092  6.18875e-05
540    0.501953     0.98206     1.04971  6.14762e-05
550    0.503534    0.982117     1.08036  0.00041444
560    0.493665    0.981762     1.01927  0.000326487
570    0.497004    0.981882     1.11113  0.000107063
580    0.491523    0.981685     1.11107  0.000327978
590    0.490444    0.981646     1.38709  -0.00033443
600    0.498212    0.981926     1.08036  -2.49043e-05
610    0.490943    0.981664     1.29484  0.000417335
620    0.489865    0.981625     1.17216  0.000640315
630    0.478136    0.981203      1.1111  0.000774683
640    0.474372    0.981067     1.54037  6.51166e-05
650    0.476834    0.981156     1.26431  -0.000290413
660     0.48018    0.981276     1.44806  -2.32503e-05
670    0.477299    0.981172     1.50963  0.00055584
680    0.469063    0.980876     1.47901  0.000110209
690    0.475095    0.981093      1.5709  6.66037e-05
700    0.467731    0.980828     1.41744  0.000692441
710    0.461246    0.980594     1.47907  0.000335507
720    0.461021    0.980586      1.2952  0.000291738
730    0.455411    0.980384     1.35632  0.00042685
740    0.452484    0.980279     1.35629  -2.13474e-05
750    0.455838    0.980399      1.4788  0.000158775
760    0.449308    0.980164     1.23357  0.00051869
770    0.445464    0.980026     1.69349  0.000294799
780    0.443412    0.979952     1.69349  0.00034072
790     0.43865     0.97978     1.75461  -0.000110704
800    0.445626    0.980032     1.60131  0.000568332
810    0.427283    0.979371     1.32549  0.000839798
820    0.428831    0.979427     1.47871  2.66433e-05
830     0.42675    0.979352     1.66272  0.000208172
840    0.424667    0.979277     1.38679  0.000117654
850    0.424397    0.979267     1.75467  0.000300011
860    0.418667    0.979061      1.5401  0.000300507
870    0.418387     0.97905     1.78511  0.000118813
880    0.416291    0.978975     2.09187  0.00021024
890    0.414182    0.978899     1.50912  0.000256491
900    0.411161     0.97879     1.63195  0.000622858
910    0.401725     0.97845     1.63213  0.000212058
920     0.40692    0.978637     1.41717  0.000258806
930    0.396549    0.978264     1.93854  0.000855272
940    0.389814    0.978021     1.41738  0.000443977
950     0.38767    0.977944     1.44794  -0.000336747
960    0.396549    0.978264     1.66233  -0.000106567
970    0.389801    0.978021     1.78517  0.000583558
980    0.384878    0.977843     1.75452  0.000169863
990    0.386404    0.977898     1.47829  -6.04823e-05
1000    0.386088    0.977887     1.69301  0.000586866
1010    0.374666    0.977476     1.75446  0.000633697
1020    0.373414    0.977431     1.75434  0.000311099
1030    0.368444    0.977252     1.69325  -1.28254e-05
1040     0.37367     0.97744      1.9383  0.000451919
1050    0.359406    0.976926     1.69322  0.000591087
1060    0.361848    0.977014     1.72366  -1.15842e-05
1070    0.359638    0.976934     1.44779  0.000221409
1080     0.35742    0.976854      1.4785  -0.000291406
1090    0.365466    0.977144     1.44746  0.000455725
1100    0.348306    0.976526     1.63169  0.00110978
1110     0.34327    0.976345     1.53977  0.000317469
1120    0.341956    0.976297      1.7544  -0.000150171
1130    0.346274    0.976453     1.78493  0.000318711
1140    0.335582    0.976068     1.60116  0.00013081
1150    0.343657    0.976359     1.41684  -0.000102928
1160    0.337641    0.976142     1.63157  0.00060209
1170    0.331616    0.975925       1.509  0.000697738
1180    0.323686    0.975639     1.60119  0.000321938
1190    0.325177    0.975693     1.78487  8.67099e-05
1200    0.321952    0.975577     1.81549  0.000370587
1210    0.317765    0.975426     1.69289  3.99634e-05
1220    0.321153    0.975548     1.84614  0.000229931
1230    0.313167     0.97526     1.41675  3.99619e-05
1240    0.320353    0.975519      1.9993  0.000231007
1250    0.308546    0.975094     2.09148  0.000896558
1260    0.302422    0.974873     1.53935  -5.36144e-05
1270    0.309619    0.975133     2.12198  0.00032839
1280    0.295854    0.974637     1.50885  0.000519352
1290    0.299232    0.974759       1.938  4.3273e-05
1300    0.294989    0.974606     1.84599  0.000616817
1310    0.286895    0.974314     1.63142  0.000522496
1320    0.284539    0.974229     1.84605  0.000523737
1330    0.276421    0.973937     1.47808  -3.14415e-06
1340    0.284602    0.974232     1.78454  -0.000242589
1350    0.281272    0.974112     2.03009  0.00028545
1360    0.278893    0.974026     1.69256  0.000478727
1370    0.271698    0.973767     1.60065  0.000575863
1380    0.267376    0.973611     1.66227  0.000674239
1390    0.258213    0.973281     1.56994  -0.000242756
1400    0.272231    0.973786     1.96853  4.82366e-05
1410    0.257248    0.973246     1.75401  0.000967135
1420    0.252888    0.973089      1.7541  0.000339478
1430    0.250459    0.973002     1.69277  -9.65565e-05
1440    0.254819    0.973159     1.63133  -0.000193775
1450    0.254334    0.973141     1.53902   0.0001462
1460    0.251895    0.973053     1.84572  0.000195512
1470    0.250424       0.973     1.63109  0.000244824
1480    0.246999    0.972877     1.78436  0.000782213
1490     0.23478    0.972437     1.50843  0.000587612
1500    0.235246    0.972454     1.60044  -0.000340305
1510    0.241586    0.972682     1.56964  0.000345683
1520    0.228333    0.972205     1.23241  0.000541691
1530    0.230752    0.972292     1.63103  5.23731e-05
1540    0.227285    0.972167     1.44707  0.000642385
1550    0.217904    0.971829     1.53905  0.000200725
1560    0.223271    0.972022     1.07907  0.000350151
1570    0.210901    0.971577     1.56979  0.000201387
1580    0.219243    0.971877     1.32408  5.48556e-05
1590    0.209804    0.971537     1.41618  0.000548807
1600    0.208267    0.971482     1.56979  0.000500901
1610    0.199786    0.971177     1.63109  0.000849149
1620    0.191284     0.97087     1.44704  5.65931e-05
1630    0.198654    0.971136     1.60035  -0.000489483
1640    0.201074    0.971223     1.26285  5.65939e-05
1650    0.197522    0.971095     1.41621  0.000355694
1660     0.19396    0.970967      1.5389  0.000206681
1670    0.193389    0.970946      1.3242  0.000107312
1680    0.191813    0.970889     1.23232  -0.000292399
1690    0.199237    0.971157     1.50807  0.000258311
1700    0.186647    0.970703     1.56958  0.000458208
1710    0.190073    0.970827     1.44686  -4.18663e-05
1720    0.187485    0.970733     1.47748  0.000611275
1730    0.177847    0.970386     1.78442  0.000209495
1740    0.183295    0.970582     1.47745  -4.10385e-05
1750    0.178668    0.970416      1.5389  0.000160266
1760    0.180089    0.970467     1.63064  6.00681e-05
1770    0.177467    0.970373     1.66129  0.000515214
1780    0.169785    0.970096     1.60011  0.000465406
1790    0.168158    0.970037     1.41597  0.000112111
1800    0.167543    0.970015     1.72264  0.000112277
1810    0.165913    0.969956     1.96793  0.000265013
1820    0.162243    0.969824      1.5694  0.000113104
1830    0.163651    0.969875      1.5386  -3.95492e-05
1840    0.163034    0.969853     1.59993  -3.97973e-05
1850    0.164447    0.969904     1.44656  0.000420231
1860    0.154629     0.96955     1.63067  0.000369263
1870    0.157062    0.969638     1.66129  1.25766e-05
1880    0.154377    0.969541     1.66138  -0.000397477
1890    0.165011    0.969924     1.59969  0.00011509
1900    0.152076    0.969458     1.60002  0.000524813
1910    0.154515    0.969546     1.72264  -8.99374e-05
1920    0.153874    0.969523     1.72252  6.42054e-05
1930    0.153231      0.9695     1.50789  -3.86387e-05
1940    0.154647    0.969551     1.56919  0.000632538
1950     0.14058    0.969044     1.87595  0.000426353
1960     0.14612    0.969243     1.50789  0.000169697
1970    0.137186    0.968922     1.81453  0.000635683
1980    0.133406    0.968786     1.32385  0.000274362
1990    0.131699    0.968724     1.47712  0.000223313
2000     0.12894    0.968625     1.26258   -8.82e-05
2010    0.133463    0.968788      1.3237  1.60508e-05
2020    0.128619    0.968613     1.50777  0.000223891
2030    0.128985    0.968626     1.20116  6.83427e-05
2040    0.127252    0.968564      1.0785  -0.000140821
2050    0.131801    0.968728     1.41573  -8.86962e-05
2060    0.129026    0.968628     1.10906  0.000330459
2070    0.125192     0.96849     1.17051  0.000436282
2080    0.120301    0.968313     1.47706  0.000174331
2090    0.121706    0.968364     1.38505  0.000227863
2100    0.115743    0.968149      1.3237  0.000333438
2110    0.115037    0.968124     1.29299  -0.000193361
2120    0.119611    0.968289     1.13971  -3.4916e-05
2130    0.115735    0.968149     1.23166  0.000176234
2140    0.116086    0.968162     1.41561  0.000229766
2150     0.11114    0.967983     1.50756  0.000123943
2160    0.113607    0.968072     1.47688  7.14038e-05
2170    0.109712    0.967932     1.50741  0.000443397
2180    0.104739    0.967753      1.2929  -3.4254e-05
2190    0.110397    0.967957     1.53806  -8.70414e-05
2200     0.10648    0.967816     1.50738  0.000392265
2210    0.102551    0.967674     1.53809  0.000179626
2220    0.102887    0.967686     1.53809  0.000287352
2230   0.0968045    0.967467     1.20089  0.000180619
2240    0.099275    0.967556     1.41543  -0.00019394
2250    0.100683    0.967607     1.29281  0.000127832
2260   0.0967184    0.967464     1.41546  -8.72068e-05
2270    0.102427     0.96767     1.50717  2.07674e-05
2280   0.0963031    0.967449     1.32328  0.000397395
2290   0.0944795    0.967383     1.32319  7.46302e-05
2300   0.0948105    0.967395     1.35408  0.000183267
2310   0.0908142    0.967251     1.07799  0.000237709
2320   0.0900563    0.967224     1.29251  0.000454981
2330   0.0817145    0.966924     1.29266  0.000347172
2340   0.0831128    0.966974     1.13923  -0.000139911
2350   0.0845128    0.967024     1.16988  -0.000194767
2360   0.0870082    0.967114     1.23115  0.000294964
2370   0.0786135    0.966812     1.10858  0.000349654
2380   0.0800151    0.966862     1.38464  0.000296702
2390   0.0726795    0.966598     1.17003  0.000570071
2400   0.0686137    0.966452     1.17006  -8.5469e-05
2410   0.0743888     0.96666    0.924657  -2.97859e-05
2420   0.0692094    0.966473    0.924687  -3.07791e-05
2430   0.0750044    0.966682     1.13911  0.000189637
2440   0.0654166    0.966337     1.07802  0.000574704
2450   0.0635103    0.966268     1.04737  -0.000195346
2460   0.0693236    0.966477      1.0471  -0.000139911
2470   0.0663086    0.966369      1.0164  0.000632952
2480   0.0566645    0.966021     1.07787  0.000191209
2490   0.0624844    0.966231     1.04713  -2.87104e-05
2500   0.0572387    0.966042    0.955187  0.000358921
2510    0.055306    0.965972    0.924567  -0.000250864
2520    0.062256    0.966223    0.771022  0.000416507
2530   0.0469758    0.965672     1.01663  0.000415928
2540   0.0539375    0.965923     1.04716  -0.000362313
2550   0.0542221    0.965933     1.04698  0.000362727
2560   0.0466829    0.965662     1.01651  2.73038e-05
2570    0.053676    0.965914    0.985746  -0.000195843
2580   0.0505998    0.965803    0.771141  8.35663e-05
2590   0.0520047    0.965853     1.01637  0.000252271
2600   0.0455544    0.965621    0.893738  0.000533914
2610   0.0413264    0.965469    0.893768  0.000310271
2620   0.0393489    0.965398     1.07769  0.000367526
2630   0.0339759    0.965204    0.955216  0.000198904
2640   0.0353709    0.965254    0.863149  -0.00013958
2650   0.0367675    0.965305    0.863179  0.000143635
2660   0.0324982    0.965151    0.679164  0.000143717
2670   0.0338931    0.965201     0.83229  -8.29045e-05
2680   0.0341563    0.965211    0.740342  0.000257814
2690   0.0287369    0.965015     0.83241  0.000486008
2700   0.0244361     0.96486    0.617746   0.0003734
2710   0.0212689    0.964746    0.709873  8.87788e-05
2720   0.0226605    0.964796    0.648515  3.25164e-05
2730   0.0206185    0.964723    0.525858  0.000204282
2740   0.0185749    0.964649    0.740462  8.97717e-05
2750   0.0188231    0.964658    0.648455  0.000147606
2760   0.0156228    0.964543    0.402992  -8.18287e-05
2770   0.0204597    0.964717    0.556417  -0.000139415
2780    0.018411    0.964643     0.43388  0.000666792
2790  0.00712382    0.964237    0.679283  -0.000139994
2800   0.0212109    0.964744     0.83235  -0.000659015
2810   0.0203041    0.964712    0.863029  3.28474e-05
2820    0.020554    0.964721    0.678954  0.000438764
2830   0.0115288    0.964396    0.740462  0.000323261
2840   0.0140888    0.964488    0.648395  3.40884e-05
2850   0.0108471    0.964371    0.863209  0.000325081
2860  0.00758715    0.964254    0.556627  9.30812e-05
2870  0.00898544    0.964304     0.80185  -0.000198491
2880    0.011557    0.964397    0.771141  -0.000315897
2890   0.0153034    0.964531    0.648305  0.000385977
2900  0.00383743    0.964118    0.648455  0.000561549
2910  0.00407241    0.964127    0.617865  -0.000257897
2920  0.00899537    0.964304    0.556417  3.59914e-05
2930  0.00335258    0.964101    0.495029  0.000211729
2940  0.00476079    0.964152    0.709753  -8.21597e-05
2950  0.00499577     0.96416    0.679074  0.000153646
2960  0.00168787    0.964041    0.587216  9.48187e-05
2970   0.0030994    0.964092    0.709663  -0.000140987
2980  0.00450761    0.964143    0.433671  0.000392182
2990  -0.00474425    0.963809    0.648425  0.00062956
3000  -0.00808359    0.963689    0.740582  9.67217e-05
3010  -0.00667868     0.96374    0.617835  -0.000259717
3020  -0.00288924    0.963876    0.556357  -0.000319868
3030  -0.000281312     0.96397    0.403021  3.7067e-05
3040  -0.00363058    0.963849    0.586977  0.000276265
3050  -0.00580661    0.963771    0.648305  0.000397229
3060  -0.0115752    0.963563    0.311194  3.80599e-05
3070  -0.00656781    0.963744     0.46429  9.89556e-05
3080  -0.0135543    0.963492    0.372492  -8.23252e-05
3090  -0.00492131    0.963803     0.46432  -0.000141814
3100   -0.010718    0.963594    0.525828  -2.2505e-05
3110  -0.00447121    0.963819    0.433581  9.92867e-05
3120  -0.0127037    0.963523    0.341783  3.78944e-05
3130  -0.0052291    0.963792    0.617536  -0.000324254
3140  -0.00621865    0.963756     0.46426  0.000159851
3150  -0.00842613    0.963677    0.494999  0.000159851
3160  -0.00941568    0.963641    0.310924  0.000464744
3170   -0.017721    0.963342    0.219066  3.9301e-05
3180  -0.0102017    0.963613    0.586857  0.000223229
3190  -0.0221856    0.963181    0.617686  0.000222485
3200  -0.0146514    0.963453    0.709603  -0.000509589
3210  -0.0119938    0.963548    0.525618  0.000407985
3220  -0.0228111    0.963159    0.372312  0.000346593
3230  -0.0189257    0.963299    0.617536  -1.99401e-05
3240  -0.0224123    0.963173    0.770961  -0.000205441
3250  -0.0148169    0.963447    0.648125  -2.03537e-05
3260  -0.0220052    0.963188      0.4642  0.000410798
3270  -0.0230328    0.963151    0.648245  4.12866e-05
3280   -0.022831    0.963158    0.648305  0.000103589
3290  -0.0251046    0.963076    0.586946  0.000227863
3300  -0.0273882    0.962994    0.617716  0.000104499
3310  -0.0271946    0.963001    0.678894  4.22796e-05
3320  -0.0282338    0.962963    0.770872  0.000229435
3330  -0.0317833    0.962835    0.648305  -1.93609e-05
3340  -0.0278466    0.962977    0.678864  -0.000394251
3350  -0.0238983    0.963119    0.648185  -0.000269977
3360  -0.0224471    0.963172    0.556148  -2.0271e-05
3370  -0.0234929    0.963134    0.617506  -0.0001462
3380  -0.0195231    0.963277    0.433461  0.000105161
3390  -0.0255961    0.963058    0.617566  0.000419569
3400  -0.0279144    0.962975     0.46417  -2.01883e-05
3410  -0.0251923    0.963073    0.402901  -0.00027279
3420  -0.0224586    0.963171    0.556208  4.28587e-05
3430  -0.0260495    0.963042    0.402961  -8.38973e-05
3440  -0.0207807    0.963232    0.709513  -0.000147027
3450   -0.023109    0.963148     0.43367  0.000423706
3460  -0.0292548    0.962927    0.648185  0.000297529
3470  -0.0290595    0.962934    0.494939  0.000171435
3480  -0.0326835    0.962803    0.525648  -8.38972e-05
3490  -0.0273816    0.962994    0.586827  -0.000147275
3500   -0.029738    0.962909     0.49476  -8.43937e-05
3510  -0.0256937    0.963055    0.617386  -8.42282e-05
3520  -0.0280534     0.96297    0.678834  0.000429084
3530  -0.0342754    0.962746    0.494969  4.42653e-05
3540  -0.0289387    0.962938    0.648155  -0.000148102
3550  -0.0313133    0.962852    0.678745  0.000302493
3560  -0.0349886     0.96272    0.402931  0.000497095
3570  -0.0412552    0.962494    0.678984  -0.000213715
3580  -0.0307143    0.962874     0.46423  -1.80371e-05
3590  -0.0408945    0.962507    0.648305  0.000304893
3600  -0.0368122    0.962654    0.586857  -0.00014893
3610  -0.0379159    0.962615    0.586797  0.000111201
3620  -0.0390362    0.962574    0.709573  4.63337e-05
3630  -0.0388426    0.962581    0.801611  4.63337e-05
3640  -0.0399629    0.962541    0.678924  4.67476e-05
3650  -0.0397775    0.962547    0.678804  0.000112525
3660  -0.0422134     0.96246    0.648275  4.66647e-05
3670  -0.0407108    0.962514    0.556297  -0.00014984
3680  -0.0392166    0.962568    0.372133  -8.40627e-05
3690  -0.0390296    0.962574    0.586767  -0.000150916
3700  -0.0361982    0.962676    0.648065  0.000179047
3710  -0.0426105    0.962445    0.709514  -8.61311e-05
3720  -0.0344756    0.962738     0.49464  -8.49729e-05
3730  -0.0409111    0.962507    0.555998  0.000445135
3740  -0.0433783    0.962418    0.556088  0.000113849
3750   -0.043188    0.962425    0.556058  -8.53037e-05
3760  -0.0416723    0.962479    0.586737  4.86504e-05
3770   -0.044161     0.96239    0.525379  0.00058273
3780  -0.0533268    0.962059    0.617566  0.000248961
3790  -0.0491403     0.96221    0.525498  -0.000352219
3800  -0.0462825    0.962313    0.586647  -8.48074e-05
3810  -0.0474441    0.962271    0.372013  0.000519931
3820  -0.0566811    0.961939    0.648245  0.000251444
3830   -0.052473     0.96209    0.525468  -8.41454e-05
3840  -0.0549982    0.961999    0.648125  -0.00021992
3850  -0.0480746    0.962249    0.586647  5.08845e-05
3860  -0.0560159    0.961963    0.556088  4.94778e-05
3870  -0.0490641    0.962213    0.555998  -1.69614e-05
3880  -0.0556766    0.961975    0.648065  -1.79544e-05
3890  -0.0487051    0.962226    0.525319  -0.000357432
3900   -0.048528    0.962232    0.433341  -0.000222898
3910  -0.0442471    0.962386    0.433221  4.98088e-05
3920  -0.0495242    0.962196    0.371983  -1.86989e-05
3930  -0.0438731      0.9624    0.525169  -8.64621e-05
3940  -0.0477949    0.962259    0.371953  0.000324254
3950  -0.0503582    0.962166    0.402572  -1.85335e-05
3960  -0.0474243    0.962272    0.249236  -0.000293392
3970  -0.0444903    0.962378    0.279945  5.07189e-05
3980  -0.0484386    0.962236    0.218677  -8.84479e-05
3990  -0.0427214    0.962441    0.402542  -0.000295378
4000  -0.0425311    0.962448    0.463901  -0.000158279
4010  -0.0395558    0.962555    0.249206  -0.000228028
4020  -0.0379705    0.962613    0.310535  -0.000228773
4030  -0.0349803     0.96272    0.310505  -2.04366e-05
4040  -0.0375618    0.962627    0.433311  -9.07646e-05
4050   -0.033165    0.962786    0.433191  -0.000230428
4060  -0.0329532    0.962793    0.402512  -2.11811e-05
4070  -0.0327414    0.962801    0.249146  -0.000161589
4080  -0.0297215     0.96291    0.279855  -2.14294e-05
4090  -0.0323128    0.962816    0.218587  -9.22538e-05
4100  -0.0278764    0.962976    0.187788  -0.000162582
4110  -0.0290612    0.962933    0.157049  -9.30812e-05
4120  -0.0260148    0.963043      0.1264  -0.000376048
4130  -0.0215402    0.963204    0.218437  -0.000306547
4140  -0.0198838    0.963264   0.0958406  0.000118399
4150  -0.0239082    0.963119    0.187878  -2.35806e-05
4160  -0.0194122    0.963281    0.218467  -0.000521999
4170  -0.0134682    0.963495    0.310445  -0.000167132
4180  -0.0160695    0.963401    0.157139  0.00011782
4190  -0.0158246     0.96341    0.187788  -0.000311181
4200  -0.00984592    0.963626   0.0343923  4.6913e-05
4210  -0.0167629    0.963376    0.157169  4.60028e-05
4220   -0.010766    0.963592  0.00377292  -0.000312505
4230  -0.0105128    0.963602   0.0956905  -0.000169946
4240  -0.00736707    0.963715   0.0957805  -9.80455e-05
4250  -0.00855189    0.963672     0.12643  0.000191044
4260  -0.0111879    0.963577   0.0344523  -2.64764e-05
4270  -0.00802236    0.963691   0.0650414  -0.000316642
4280  -0.00485512    0.963805    0.279706  -0.000244659
4290  -0.00312918    0.963868    0.218348  -0.00031871
4300  0.00151909    0.964035     0.12631  -0.000392761
4310  0.00472604     0.96415   0.0649216  0.000117903
4320  -0.000838972     0.96395   0.0344822  0.000117655
4330  0.00237295    0.964066   0.0957207  -0.000395078
4340  0.00706259    0.964235     0.12634  -0.000101934
4350  0.00441164    0.964139    0.187698  4.41825e-05
4360  0.00617894    0.964203    0.157049  -0.000324419
4370      0.0109    0.964373    0.157049  -0.000324915
4380   0.0126772    0.964437   0.0956308  -0.000104416
4390   0.0129883    0.964448    0.157019  -0.000179295
4400   0.0162631    0.964566    0.187579  -3.05306e-05
4410    0.013599     0.96447    0.248967  0.000266667
4420   0.0109298    0.964374    0.402362  -0.000105658
4430   0.0157121    0.964546    0.340974  0.000118978
4440  0.00855023    0.964288    0.249086  0.000417997
4450  0.00735217    0.964245    0.249176  -0.000405338
4460    0.016657     0.96458    0.279706  -0.00025558
4470   0.0124638    0.964429    0.463811  4.36033e-05
4480   0.0157849    0.964549    0.463751  -3.11098e-05
4490    0.013086    0.964452    0.402452  -0.000334265
4500   0.0224702     0.96479    0.402303  -0.000410054
4510   0.0212871    0.964747    0.463751  0.000194436
4520   0.0185815     0.96465    0.555878  0.000118896
4530   0.0189091    0.964661    0.647856  -0.000185087
4540   0.0222832    0.964783    0.617027  -0.000185004
4550   0.0226092    0.964795    0.617057  0.000120054
4560   0.0198821    0.964696     0.49443  -0.000109877
4570   0.0248068    0.964874    0.525079  -0.000570071
4580   0.0312836    0.965107    0.402333  -0.000264516
4590   0.0300971    0.965064     0.49428  -0.000112277
4600   0.0335291    0.965188    0.647616  -3.52467e-05
4610    0.030802     0.96509    0.678325  0.000118978
4620   0.0311495    0.965102    0.586408  -0.000267495
4630   0.0361519    0.965282    0.647556  0.000119723
4640   0.0287551    0.965016    0.616967  0.00019667
4650   0.0322185    0.965141    0.647616  0.000120302
4660    0.026349    0.964929    0.617057  -0.000114014
4670   0.0344988    0.965223    0.616847  -0.000269067
4680   0.0317304    0.965123    0.555639  -0.000349323
4690   0.0414853    0.965475     0.49416  -0.000193113
4700   0.0355926    0.965262     0.49428  0.000276182
4710   0.0359616    0.965276    0.678295  -0.00019394
4720   0.0394714    0.965402    0.616907  -3.65706e-05
4730    0.036693    0.965302    0.678265  -0.000275024
4740   0.0449719      0.9656    0.647496  -0.000116579
4750   0.0390246    0.965386    0.647616  0.000199235
4760   0.0409872    0.965457    0.739594  -3.78944e-05
4770   0.0397825    0.965413    0.616937  -0.000436613
4780   0.0497194    0.965771      0.8929  -0.000357101
4790   0.0469245     0.96567    0.770333  -0.000199897
4800   0.0537174    0.965915    0.708915  -0.000520262
4810   0.0573298    0.966045    0.739474  0.000119392
4820   0.0513295    0.965829    0.770213  0.000279574
4830   0.0517383    0.965844    0.800892  -0.000604656
4840   0.0634226    0.966265    0.739474  -0.00068665
4850   0.0654713    0.966339    0.831511  0.000118482
4860    0.061053    0.966179    0.831511  3.73978e-05
4870   0.0647233    0.966312    0.708765  -0.000286525
4880   0.0667835    0.966386    0.739444  3.76463e-05
4890   0.0639704    0.966284    0.647436  -4.44308e-05
4900   0.0676721    0.966418    0.678056  -0.000207095
4910   0.0681123    0.966434    0.678116  0.000201055
4920    0.063651    0.966273    0.616877  0.000119061
4930   0.0657311    0.966348    0.586108  -0.000290662
4940   0.0694642    0.966482    0.647377  -0.000208998
4950    0.069911    0.966498    0.616757  0.000284787
4960   0.0637685    0.966277    0.678116  0.000367443
4970   0.0625622    0.966234    0.678175  -4.45135e-05
4980   0.0646588    0.966309    0.647407  -4.39342e-05
4990   0.0634408    0.966265    0.586138  -4.33549e-05
