Time   C(t)   
ps   
0           1           1  7.22544e-10   0.0465631
10    0.543514    0.827735   -0.151078   0.0244758
20    0.510483     0.81527     1.16196  0.00238861
30    0.495742    0.809707     2.07396  0.00141381
40    0.482207    0.804599     1.87613  0.00130827
50    0.469576    0.799833     1.83596   0.0013781
60    0.454645    0.794198     1.08119  0.00109608
70    0.447655     0.79156     1.35877  0.000912188
80    0.436401    0.787313     1.23943  0.000716785
90    0.433319     0.78615     1.23683  0.000697832
100    0.422445    0.782047   -0.908062   0.0010886
110    0.411547    0.777934     1.55582  0.000981583
120    0.402813    0.774638     1.15855  0.000384814
130    0.403851     0.77503     1.31473  0.000344355
140    0.395926    0.772039    0.679688  0.000673366
150    0.390384    0.769948     1.67257  0.000403221
160    0.387861    0.768996     1.83034  0.00054013
170    0.379581    0.765871     0.67833  0.000431037
180    0.379241    0.765743   -0.950869   0.0002018
190    0.375545    0.764348    0.597719  0.000348888
200    0.372263    0.763109     0.91516  0.000507103
210    0.365403    0.760521    0.160893  0.000660421
220    0.359054    0.758125     1.11492  0.000440797
230    0.356587    0.757194     1.54907  0.000368206
240     0.35169    0.755346    0.675886  0.000695699
250    0.342673    0.751943     1.82987  0.000480473
260    0.342081     0.75172     2.22502  0.000138535
270    0.339902    0.750897     3.05846  0.000313295
280    0.335815    0.749355     1.03195  0.000435601
290     0.33119     0.74761      2.1845  0.000478798
300    0.326239    0.745741     2.54141  0.000585903
310    0.319472    0.743188     1.62883  0.000284392
320    0.320551    0.743595     1.82634  0.000115253
330    0.317167    0.742318     1.22942    0.000211
340    0.316331    0.742002     1.22799  0.000238223
350    0.312403     0.74052    0.752541  0.000169295
360    0.312945    0.740725     1.46613  0.000143185
370    0.309539    0.739439     2.73629  0.000501211
380    0.302921    0.736942     3.96964  0.000272071
390    0.304098    0.737386      2.5772  -1.06603e-05
400    0.303134    0.737022     3.37156  0.000283964
410    0.298418    0.735243     3.57027  0.000397046
420    0.295193    0.734026     3.45163   0.0001348
430    0.295722    0.734225     3.13275  0.000156738
440    0.292059    0.732843     4.12602  2.76804e-05
450    0.295169    0.734016     3.37016  -7.96676e-05
460    0.293652    0.733444     4.24397  0.000124903
470    0.292671    0.733074     4.32202  0.000238569
480     0.28888    0.731643     3.76662  0.000590223
490    0.280866    0.728619     3.01251  0.000293702
500    0.283006    0.729427     3.05066  0.000181118
510    0.277244    0.727252       2.892  0.00037082
520     0.27559    0.726628     3.68652  0.000404336
530    0.269157      0.7242     4.76012  0.000421299
540    0.267164    0.723448     4.48204  0.000106946
550    0.267018    0.723393       5.117  9.23872e-06
560    0.266979    0.723378     5.39369  1.4776e-05
570    0.266723    0.723282     3.60598  0.000243917
580    0.262101    0.721537     4.95729  0.000282432
590    0.261074     0.72115     5.55262  0.000234021
600    0.257421    0.719771     5.79139  -3.37929e-05
610     0.26175    0.721405     3.44612  -0.000159486
620     0.26061    0.720975      3.8824  0.000163466
630    0.258481    0.720171     3.72319  0.000125369
640    0.258103    0.720029      3.1274  0.00016969
650    0.255087     0.71889      4.3587  0.000208475
660    0.253933    0.718455     4.27902  0.000368766
670    0.247711    0.716107     4.79684  0.000330637
680    0.247321     0.71596     6.22574  -6.57931e-05
690    0.249027    0.716604     5.86731  0.000326539
700     0.24079    0.713495     4.91518  0.000359929
710    0.241829    0.713887     6.02679  -1.54153e-05
720    0.241098    0.713612     5.11258  0.000211783
730    0.237593    0.712289     4.87497  0.000356406
740     0.23397    0.710922     5.54979  -4.03523e-06
750    0.237674    0.712319     5.42951  -0.000287329
760    0.239717     0.71309     6.46097  4.05371e-05
770    0.236863    0.712013     5.30858  0.000213157
780    0.235453    0.711481     5.26829  0.000152308
790    0.233817    0.710864     4.83139  2.41101e-05
800    0.234971    0.711299     4.55346  0.000387885
810    0.226059    0.707936     5.38903  0.000348991
820    0.227991    0.708665     6.54003  -1.96412e-05
830    0.226452    0.708084     4.15591  -5.34885e-05
840    0.229061    0.709069      5.5449  0.000182531
850    0.222801    0.706707     4.03668  0.000396153
860    0.221138    0.706079     6.77822  6.51374e-05
870    0.221499    0.706215     6.14089  0.000104774
880    0.219043    0.705288     7.65087  -1.3607e-05
890    0.221771    0.706318     6.89497  3.75047e-05
900    0.218293    0.705005     5.86339  0.000172927
910    0.218312    0.705013     4.75008  9.42543e-05
920    0.216407    0.704294     4.98846  2.63773e-05
930    0.217785    0.704814     4.31263  0.000219514
940    0.212017    0.702637     4.43279  0.000299064
950    0.211803    0.702556      4.4319  -2.97256e-05
960    0.212612    0.702862     3.31859  -9.80213e-05
970    0.213764    0.703296     4.15335  0.000260778
980    0.207396    0.700893     5.58434  0.000397851
990    0.205807    0.700294     4.47129  4.48965e-05
1000    0.206498    0.700554     3.43774  0.00016522
1010    0.202502    0.699047     5.74234  -2.35654e-05
1020     0.20697    0.700732     6.33717  9.14589e-05
1030    0.200673    0.698356     5.82198  0.000165654
1040    0.203656    0.699482      5.6608  1.14508e-05
1050    0.200444     0.69827     5.78088  0.000137595
1060    0.200905    0.698444     5.93942  -2.87779e-05
1070     0.20102    0.698487     5.30392  0.000132502
1080    0.198255    0.697444     7.29093  0.000311439
1090    0.194791    0.696136     6.21829  9.26591e-05
1100    0.196401    0.696744     5.46367  -0.000161286
1110    0.198017    0.697354     4.46916  0.000284059
1120     0.19072      0.6946     3.75545  0.000174151
1130    0.194534    0.696039     3.79399  -0.000167139
1140    0.194063    0.695862     3.27768  -0.000156154
1150    0.197657    0.697218     4.54771  3.56168e-05
1160    0.193351    0.695593      4.8655  0.000390325
1170     0.18985    0.694272     4.58765  8.23617e-05
1180    0.191703    0.694971     4.78621  -0.000150491
1190     0.19286    0.695408     5.26158  0.000199589
1200    0.187712    0.693465     3.83207  0.000380943
1210    0.185241    0.692533     4.66663  -3.95104e-05
1220    0.188502    0.693763     5.38139  -0.000133078
1230    0.187903    0.693537     5.18287  4.82529e-05
1240    0.187537    0.693399     5.42055  0.000101315
1250    0.185876    0.692772     4.98314  0.000383786
1260    0.179861    0.690502     3.63405  0.000237165
1270    0.181133    0.690982     4.98369  -1.53288e-05
1280    0.180168    0.690618     3.35499  -8.62941e-05
1290    0.182859    0.691634     4.30782  -0.000233997
1300    0.184848    0.692384     4.50638  2.57134e-05
1310    0.182345     0.69144     4.18824  1.80826e-06
1320    0.184811     0.69237      4.7833  -0.000270657
1330    0.187758    0.693482     4.06824  0.000357915
1340    0.177653    0.689669     3.75242  0.00036988
1350     0.18036    0.690691     6.37276  -0.000193714
1360    0.181527    0.691131     6.25318  -0.000176371
1370    0.183888    0.692022     5.73695  0.000121485
1380    0.179098    0.690214     5.18209  0.000163127
1390    0.180625    0.690791     4.70463  -0.000314258
1400    0.185383    0.692586     5.49709   0.0002237
1410    0.176151    0.689102     5.38054  0.00045701
1420    0.176243    0.689137     5.57805  -0.00017108
1430    0.179573    0.690394     6.65003  -0.000183313
1440    0.179909     0.69052        6.45  0.000110642
1450     0.17736    0.689559     5.73551  5.05671e-05
1460    0.178898    0.690139     5.53645  9.30861e-05
1470    0.175498    0.688856     5.61562  0.000123198
1480    0.176434    0.689209     5.77432  8.14609e-05
1490    0.173869    0.688241     7.32322  0.000178163
1500     0.17287    0.687864      6.4094  0.000112071
1510    0.171628    0.687395     6.96673  -0.000251324
1520    0.177897    0.689761     8.31614  -0.000469923
1530    0.181026    0.690942     7.36161  3.30187e-05
1540    0.177236    0.689512     6.32968  0.000391589
1550    0.173194    0.687986     6.44992  6.97725e-05
1560    0.175841    0.688985     6.01205  5.20512e-05
1570    0.172153    0.687594     7.60146  9.01148e-06
1580    0.175661    0.688917     6.13054  -0.000351147
1590    0.179176    0.690244     6.84487  4.58039e-05
1600    0.174745    0.688572     6.40952  0.000247589
1610    0.174224    0.688375     6.72669  7.05153e-05
1620    0.173334    0.688039     6.52816  0.000113706
1630     0.17195    0.687517     6.60831  0.000341394
1640    0.166506    0.685463     4.82118  -4.58755e-05
1650    0.172868    0.687863     6.64604  -0.000223953
1660    0.170986    0.687153     6.68655  0.000188446
1670    0.169099    0.686441     6.52766  9.00216e-05
1680    0.169185    0.686474     5.61356  8.41536e-05
1690    0.167416    0.685806     7.12354  -3.95812e-05
1700    0.169977    0.686772     9.74422  3.9883e-06
1710    0.167336    0.685776     8.47422  5.33231e-05
1720     0.16891     0.68637     7.24215  -2.70881e-05
1730    0.167878     0.68598      8.1163  0.000153153
1740    0.165847    0.685214     7.95803  5.37969e-05
1750    0.166802    0.685574     8.71237  -0.000189141
1760     0.16963    0.686641       6.646  -2.71119e-05
1770    0.167344    0.685779     7.79754  0.000203838
1780    0.165553    0.685103     6.76433  -6.48603e-05
1790    0.168641    0.686268     7.39933  -0.000290377
1800    0.171361    0.687295     8.35239  0.000110562
1810     0.16643    0.685434     7.75679  0.000273745
1820    0.165886    0.685229     7.99529  5.45077e-05
1830     0.16534    0.685022     8.35267  9.24379e-05
1840    0.164037    0.684531     9.22608  0.000143044
1850    0.162479    0.683943     10.2988  0.000143408
1860    0.161169    0.683448     10.1004  5.52259e-05
1870    0.161374    0.683526     10.8948  9.9767e-05
1880    0.159174    0.682696     10.8154  0.000144308
1890    0.158488    0.682437     10.7358  2.41265e-05
1900    0.158691    0.682513     11.0127   7.504e-05
1910    0.156988    0.681871     11.8076  6.87934e-05
1920    0.157315    0.681994     10.1789  5.38602e-06
1930     0.15688     0.68183     11.0121  0.000113777
1940     0.15504    0.681135     11.3702  -3.9281e-05
1950    0.157665    0.682126     9.62142  6.31623e-05
1960    0.153776    0.680659     12.0449  0.000344568
1970    0.150774    0.679526     11.0527  0.000159621
1980    0.150584    0.679454     10.7728  -0.000327494
1990    0.157324    0.681997     11.2882  1.26511e-05
2000    0.150331    0.679359     11.2101  0.00043001
2010    0.148724    0.678752     11.8058  0.000173757
2020    0.146856    0.678047     12.4418  0.00018058
2030    0.145112    0.677389     12.1633  0.00016815
2040    0.143493    0.676778     12.4813  3.28369e-05
2050    0.144455    0.677141      12.639  7.10785e-07
2060    0.143479    0.676773     10.2157  -9.01639e-05
2070    0.146259    0.677822     12.3595  -9.01483e-05
2080    0.145282    0.677453     11.5647  0.000442203
2090    0.137415    0.674484     11.3281  0.000371325
2100    0.137855     0.67465     12.7569  2.10546e-05
2110    0.136994    0.674325     12.9557  0.000229717
2120    0.133261    0.672917     12.9159  0.000217026
2130    0.132653    0.672687     13.2733  0.000106638
2140    0.131128    0.672112     13.9485  7.41079e-05
2150    0.131171    0.672128     14.6643  -0.000128845
2160    0.133705    0.673084      12.478  0.000120442
2170    0.128762    0.671219     12.5977  0.000363443
2180    0.126436    0.670341     12.9158  4.2069e-05
2190    0.127921    0.670901     13.1926  1.61029e-05
2200    0.126114     0.67022     13.1925  0.000114898
2210    0.125623    0.670034      12.438  -3.00892e-05
2220    0.126716    0.670447     12.9937  -0.000195467
2230    0.129532     0.67151     13.5486  -0.000162733
2240     0.12997    0.671675     13.8658  0.000367289
2250    0.122186    0.668737     13.2316  0.000400948
2260    0.121951    0.668649     13.1125  1.01481e-05
2270    0.121983    0.668661     13.6673  3.01283e-05
2280    0.121349    0.668422     13.2703  0.000330171
2290     0.11538    0.666169     13.3104  0.000384071
2300    0.113668    0.665523     14.3035  3.77886e-05
2310    0.114624    0.665884      12.753  0.000299072
2320    0.107686    0.663266     12.4364  0.000399858
2330    0.106627    0.662866     12.7937  0.000132865
2340    0.105029    0.662263     13.4686  4.58833e-05
2350    0.105709     0.66252     14.0247  -0.000290211
2360    0.110833    0.664453     13.3071  -1.45547e-05
2370       0.106    0.662629     14.2615  0.000382736
2380    0.103178    0.661564     13.1894  0.000390626
2390   0.0981878    0.659681      13.309  0.000181852
2400   0.0995412    0.660192     13.9041  7.44481e-05
2410   0.0966988    0.659119      13.944  0.000318484
2420   0.0931716    0.657788     13.5473  -8.81661e-05
2430   0.0984622    0.659785     13.3472  -6.24694e-06
2440   0.0932965    0.657835     13.1491  0.000442424
2450   0.0896137    0.656446     14.5007  0.000266448
2460   0.0879676    0.655824     15.1352  9.66158e-05
2470   0.0876814    0.655716     15.2147  -0.000217437
2480   0.0923163    0.657465     14.0614  -1.23594e-05
2490   0.0879285     0.65581     14.8961  0.000500999
2500   0.0822963    0.653684     14.7384  0.000131657
2510   0.0852954    0.654816     14.6574  -1.8543e-05
2520   0.0826672    0.653824     14.3795  0.000386993
2530   0.0775556    0.651895     14.9354  0.000291364
2540   0.0768399    0.651625     15.5318  -2.48846e-05
2550   0.0780532    0.652083     15.5312  -0.000176821
2560   0.0803763     0.65296      15.411  7.86968e-05
2570   0.0764793    0.651489      15.293  0.000133947
2580   0.0776974    0.651949     15.1334  0.00012079
2590   0.0740635    0.650577     14.9743  0.000245812
2600   0.0727811    0.650093      13.663  -4.54884e-05
2610   0.0749733    0.650921      14.695  0.000163538
2620   0.0695104    0.648859     14.7356  0.000149536
2630   0.0719826    0.649792     14.6548  8.76289e-05
2640   0.0677578    0.648198     15.0529  0.000262231
2650   0.0667379    0.647813     14.1386  0.000123104
2660   0.0652957    0.647269     13.9403  -4.4857e-05
2670   0.0676351    0.648151     15.5681  -0.000143021
2680   0.0681562    0.648348     13.5819  -4.51412e-05
2690   0.0685379    0.648492     15.4883  0.000187096
2700   0.0644142    0.646936      15.171  0.000243711
2710   0.0636637    0.646653     14.6145  0.000315238
2720   0.0581095    0.644557     14.1782  0.000252138
2730   0.0586209     0.64475     14.5349  -0.000136166
2740   0.0608328    0.645584     14.4151  -2.29811e-05
2750   0.0590805    0.644923     13.6202  8.31826e-05
2760   0.0591692    0.644957     14.2556  -7.99684e-05
2770   0.0606799    0.645527     13.6201  0.000133473
2780   0.0564997    0.643949     12.9843  0.000204707
2790   0.0565858    0.643982     12.7455  -4.42725e-05
2800   0.0573851    0.644283     12.2282  0.000348865
2810   0.0496085    0.641349      12.151  0.000198894
2820   0.0534073    0.642782     13.5798  -0.000315893
2830   0.0559264    0.643733     13.2608  -2.97097e-05
2840   0.0540015    0.643006      12.864  0.000163988
2850   0.0526466    0.642495     14.1347  0.000373244
2860   0.0465366    0.640189     14.6128  6.31791e-06
2870   0.0525202    0.642447     14.6506  -9.38755e-05
2880   0.0484141    0.640898     13.6583  -8.68738e-07
2890   0.0525376    0.642454     13.9353  -5.82034e-05
2900   0.0495782    0.641337     14.5713  0.000194851
2910   0.0486406    0.640983     14.5307  0.000195514
2920   0.0456679    0.639862     14.3325  0.000108683
2930   0.0464669    0.640163     14.6899  -4.35933e-05
2940   0.0465397    0.640191     14.3325  -0.000153129
2950   0.0495295    0.641319     13.4968  -3.65566e-05
2960   0.0472709    0.640467     14.0533  0.000270057
2970   0.0441284    0.639281     12.8622  2.1844e-05
2980    0.046834    0.640302     14.3712  -0.00032965
2990   0.0507214    0.641769     15.0859  -5.88588e-05
3000   0.0480112    0.640746     12.6219  0.000146424
3010   0.0477929    0.640664     13.1392  6.60375e-05
3020   0.0466904    0.640247     13.3368  0.000265263
3030   0.0424876    0.638661     13.8542  4.4233e-05
3040   0.0458058    0.639914     13.8527  3.75122e-05
3050   0.0417374    0.638378     13.5357  5.93325e-05
3060   0.0446191    0.639466     13.8534  -0.000125441
3070   0.0442462    0.639325     13.5748  0.000289895
3080   0.0388212    0.637278     13.2972  0.00014907
3090   0.0412648      0.6382     14.4886  -8.08608e-05
3100   0.0404384    0.637888      13.098  0.000217066
3110   0.0369235    0.636562     13.8535  8.30404e-05
3120   0.0387776    0.637261     12.5419  -0.000223115
3130   0.0413858    0.638246     13.0185  0.000263321
3140   0.0335112    0.635274     13.8932  5.32439e-05
3150   0.0403209    0.637844      13.176  -0.000125907
3160   0.0360294    0.636224     12.8987  0.000384663
3170   0.0326277    0.634941      12.661  -0.000103976
3180   0.0381089    0.637009     12.8186  -8.10424e-05
3190   0.0342485    0.635552     11.9846  0.000409358
3200   0.0299217    0.633919     12.7796  0.000455984
3210   0.0251288    0.632111     13.0185  0.000146432
3220   0.0269931    0.632814     13.7333  -0.000118365
3230   0.0274961    0.633004     13.7335  -1.23593e-05
3240   0.0272403    0.632908     13.8916  0.000124588
3250   0.0250044    0.632064     12.9389  0.000147735
3260   0.0242855    0.631792     13.0184  -0.000218314
3270   0.0293706    0.633711     12.3016  -9.61815e-05
3280   0.0262092    0.632518     12.1038  0.000140422
3290   0.0265622    0.632652     13.7318  -1.23751e-05
3300   0.0264567    0.632612     13.2548  -1.24305e-05
3310   0.0268108    0.632745     13.5331  1.83455e-05
3320   0.0260898    0.632473     13.2551  2.60217e-05
3330   0.0262904    0.632549     12.8973  0.000141931
3340   0.0232512    0.631402     12.3813  -3.56169e-05
3350   0.0270027    0.632818     12.5791  -0.000143597
3360   0.0261231    0.632486     11.6255  -0.000105643
3370   0.0291156    0.633615     10.8293  8.07028e-05
3380    0.024509    0.631877     11.7843  0.000196975
3390   0.0251761    0.632129     10.9099  0.000127897
3400   0.0219511    0.630912     11.2283  -6.6993e-05
3410   0.0265159    0.632634     10.3537  -9.78795e-05
3420   0.0239087     0.63165     11.1877  0.000222041
3430   0.0220751    0.630958     11.2276  0.000379514
3440   0.0163184    0.628786      11.904  -9.04876e-05
3450   0.0238848    0.631641     11.3858  -0.000231194
3460   0.0209423    0.630531     11.1873  0.000192347
3470   0.0200379     0.63019     11.6246  0.000200971
3480   0.0169229    0.629014     9.91691  0.000193532
3490   0.0161673    0.628729     11.6256  -4.29614e-05
3500   0.0177821    0.629338     10.3528  -1.91431e-05
3510   0.0165501    0.628873     12.1807  -7.49062e-05
3520   0.0192802    0.629904     11.7831  -1.9238e-05
3530   0.0169349    0.629019     11.5847  -1.9696e-05
3540   0.0196741    0.630052     10.7498  0.000132043
3550    0.014294    0.628022     12.4982  0.000251538
3560   0.0146434    0.628154     12.0612  -3.04044e-06
3570   0.0143548    0.628045     10.8691  6.09595e-05
3580   0.0134242    0.627694     12.1002  -0.000275656
3590   0.0198679    0.630125     12.4164  -0.000155483
3600   0.0165338    0.628867     12.4967  0.000317844
3610   0.0135111    0.627726     11.5439  0.000117441
3620    0.014185    0.627981     11.4247  -1.10089e-05
3630   0.0137312     0.62781      11.981  0.000110112
3640   0.0119828     0.62715     11.7414  6.98677e-05
3650   0.0123339    0.627282     12.0986  0.000135115
3660  0.00928047     0.62613      11.027  -5.95932e-05
3670   0.0135258    0.627732     11.4238  -1.04245e-05
3680  0.00948896    0.626209     10.3513  0.000225113
3690  0.00902349    0.626033     10.3914  6.29575e-05
3700  0.00822981    0.625733     9.87511  -7.57907e-05
3710   0.0105393    0.626605     11.3436  -0.000272253
3720   0.0136749    0.627788      10.707  -5.16801e-05
3730   0.0115729    0.626995     11.3425  0.000276146
3740  0.00815194    0.625704     11.0254  8.77551e-05
3750   0.0098178    0.626333     12.8127  -6.80276e-05
3760  0.00951249    0.626218     11.8597  -5.18697e-05
3770   0.0108552    0.626724      11.978  -6.01698e-05
3780   0.0107159    0.626672     10.7471  8.8458e-05
3790  0.00908603    0.626057     11.5419  8.03237e-05
3800  0.00910941    0.626065     12.6138  0.000130527
3810  0.00647549    0.625071     12.4156  0.000297129
3820  0.00316683    0.623823     11.7405  0.000148091
3830  0.00351368    0.623954     11.7797  -0.000126515
3840  0.00569713    0.624778     12.0174  -1.41362e-06
3850  0.00354195    0.623964     11.1038  0.000383305
3860  -0.00196896    0.621885     9.87216  8.24165e-05
3870  0.00189362    0.623342     9.43494  -0.000151708
3880  0.00106519     0.62303     10.4678  0.000242827
3890  -0.00296292     0.62151     9.83292  0.000411861
3900  -0.00717204    0.619921     10.8269  -0.000202938
3910  0.00109583    0.623041     9.43452  1.7232e-05
3920  -0.00751668    0.619791     10.9853  0.00028691
3930  -0.00464237    0.620876     9.99123  -2.50503e-05
3940  -0.00701567     0.61998     10.2302  9.33385e-05
3950  -0.00650914    0.620171     9.99053  -3.37216e-05
3960  -0.00634124    0.620235      8.6799  0.000247423
3970  -0.0114576    0.618304     10.4288  0.000102634
3980  -0.00839391     0.61946     9.59438  5.23593e-05
3990  -0.0125048    0.617909      9.1182  1.76979e-05
4000  -0.00874787    0.619327     9.07737  -0.000281935
4010  -0.0068661    0.620037     9.75254  0.000172509
4020  -0.0121981    0.618025     9.75308  0.000120829
4030  -0.00928268    0.619125      10.109  5.29042e-05
4040  -0.0132561    0.617625     9.71264  0.000251206
4050  -0.0143068    0.617229     8.63973   0.0001052
4060  -0.0153601    0.616831     10.9039  7.08706e-05
4070  -0.0157242    0.616694     11.5397  -5.90404e-05
4080  -0.0141793    0.617277      11.738  0.000106156
4090  -0.0178473    0.615893     10.7452  6.2539e-05
4100  -0.0154301    0.616805     10.5856  -0.000146211
4110  -0.0149231    0.616996     10.2281  0.000185271
4120  -0.0191355    0.615407     10.9045  2.79486e-05
4130  -0.0154821    0.616785     8.67874  -1.51391e-05
4140  -0.0188328    0.615521     9.51354  0.000124754
4150  -0.0179772    0.615844      9.1158  0.000134365
4160  -0.0215201    0.614507     9.31505  -0.000200568
4170  -0.0139658    0.617357     10.2272  -0.000315119
4180  -0.0152177    0.616885     10.1476  0.000479249
4190  -0.0235508     0.61374     10.2681  0.000143526
4200  -0.0180882    0.615802     10.1869  -8.55992e-05
4210  -0.0218388    0.614386     10.3065  0.000108936
4220  -0.0202669     0.61498     9.90934  -0.000103992
4230   -0.019759    0.615171     9.82939  0.000136482
4240  -0.0229965     0.61395     9.19458  0.000324335
4250  -0.0262457    0.612723     9.71121  0.000298606
4260  -0.0289687    0.611696     9.35398  -0.000103976
4270  -0.0241661    0.613508     8.75636  -2.27917e-05
4280  -0.0285128    0.611868     9.51187  0.00027339
4290  -0.0296339    0.611445     9.86874  -6.80434e-05
4300   -0.027152    0.612381     8.59669  2.23652e-05
4310  -0.0300812    0.611276      8.7557  0.000474424
4320  -0.0366404    0.608801     9.90818  0.000330732
4330  -0.0366959     0.60878     9.66956  -5.80139e-05
4340  -0.0354802    0.609239     8.75535  5.59147e-06
4350  -0.0368077    0.608738     8.11966  0.000151202
4360  -0.0385042    0.608097     8.19992  3.30107e-05
4370  -0.0374679    0.608488     8.59657  -0.000140399
4380  -0.0356962    0.609157     8.83437  -4.00394e-05
4390  -0.0366671    0.608791      9.0329  0.000207376
4400  -0.0398438    0.607592     8.04079  0.000134349
4410  -0.0393541    0.607777     8.47676  0.000319407
4420  -0.0462319    0.605181     8.79583  -3.07601e-05
4430  -0.0387389    0.608009     7.36422  -0.000159021
4440  -0.0430515    0.606381     7.92152  0.000413536
4450  -0.0470096    0.604888     8.39805  0.000164572
4460  -0.0463429    0.605139      9.5095  0.000100525
4470  -0.0490201    0.604129     8.67548  -0.000216008
4480  -0.0420228     0.60677     9.50838  0.000185192
4490   -0.052724    0.602731     9.35053  0.000249674
4500  -0.0470163    0.604885     9.50807  -3.81598e-05
4510  -0.0519608    0.603019     9.27066  0.000382815
4520  -0.0546726    0.601996     8.15812  -9.48075e-05
4530  -0.0500646    0.603735     8.75337  -9.76101e-06
4540  -0.0544774     0.60207     9.90558  0.000111968
4550   -0.052304     0.60289     8.99129  0.000141354
4560  -0.0573044    0.601003     9.98479  0.000425192
4570  -0.0608079    0.599681      9.2705  6.6527e-05
4580   -0.058635    0.600501     9.07093  -5.62131e-05
4590  -0.0596836    0.600105     7.83951  8.60335e-05
4600  -0.0603556    0.599851     9.62687  0.000162701
4610  -0.0629376    0.598877     9.66681  0.000153571
4620  -0.0634271    0.598692     8.59343  0.000106472
4630   -0.065067    0.598073     8.99048  0.000413631
4640  -0.0716997     0.59557     8.35555  8.80629e-05
4650  -0.0668283    0.597409     9.14941  -0.000247447
4660  -0.0667507    0.597438     7.55992  1.91927e-06
4670  -0.0668667    0.597394     7.91652  5.99168e-05
4680  -0.0679491    0.596986     7.20149  0.000437528
4690  -0.0756172    0.594092     8.67319  0.000545224
4700  -0.0788536    0.592871     8.95108  -1.58343e-05
4710  -0.0753006    0.594211     7.52021  -0.000307277
4720   -0.072708     0.59519     7.99608  0.000237639
4730  -0.0800533    0.592418      8.0772  0.000472094
4740  -0.0821499    0.591627     8.59363  -6.40631e-05
4750  -0.0787721    0.592901     8.15583  -0.000181473
4760  -0.0785205    0.592996     8.35435  0.000141828
4770  -0.0816086    0.591831     7.71889  4.20921e-06
4780  -0.0786046    0.592965     6.64543  -0.000123411
4790  -0.0791404    0.592762     6.68463  0.000162385
4800  -0.0818523    0.591739     7.20168  6.37706e-05
4810  -0.0804158    0.592281     7.32056  -5.46258e-05
4820  -0.0807598    0.592151     7.67825  6.42449e-05
4830  -0.0817007    0.591796     9.18714  -7.50087e-05
4840  -0.0792596    0.592717     8.23384  -4.50067e-05
4850  -0.0808006    0.592136     8.90913  2.44107e-05
4860  -0.0797479    0.592533     8.90917  -5.53761e-05
4870   -0.079693    0.592554     7.99531  8.48331e-05
4880  -0.0814445    0.591893     8.03493  6.48845e-05
4890  -0.0809907    0.592064       8.869  0.000125812
4900  -0.0839608    0.590943     8.19375  7.54748e-05
4910  -0.0825002    0.591495     8.15342  -0.000105911
4920  -0.0818425    0.591743     7.31897  2.53975e-05
4930  -0.0830082    0.591303     9.30481  0.00017769
4940  -0.0853963    0.590402     8.59017  -4.94346e-06
4950  -0.0829093     0.59134     7.71598  -0.000116628
4960  -0.0830638    0.591282      8.1525  0.000219798
4970  -0.0873053    0.589681     8.19325  6.66931e-05
4980  -0.0843976    0.590778     6.88203  -0.000229789
4990  -0.0827095    0.591416     7.75553  -0.00052627
