Time   C(t)   
ps   
0           1           1  4.33898e-10    0.042277
10    0.578871    0.840168     1.76569   0.0220755
20     0.55849    0.832433    0.921038  0.00187404
30     0.54139    0.825943     1.72365  0.00148846
40    0.528721    0.821134     1.56129  0.00143455
50    0.512699    0.815054     1.88303  0.00141642
60    0.500392    0.810383      2.1645  0.00119543
70    0.488791     0.80598     2.76743  0.000843266
80    0.483527    0.803982      3.0863  0.000934081
90    0.470109    0.798889     2.68576  0.00139013
100    0.455724     0.79343     2.72772  0.000535108
110    0.459407    0.794827     2.52305  0.000505717
120     0.44561    0.789591     4.25265  0.00108756
130    0.437656    0.786572     2.64487  0.000665121
140    0.432308    0.784542     1.43786  0.000614096
150    0.425374    0.781911     2.40197  0.000709832
160    0.418111    0.779154    0.753377  0.000285041
170    0.419673    0.779747     2.35833  0.000407279
180    0.409965    0.776063     2.68129  0.000739741
190    0.404878    0.774132    0.389646  0.00057251
200    0.398515    0.771717     2.39978  0.000399262
210    0.396893    0.771101     0.79003  0.000252296
220    0.393469    0.769802    0.789049  0.000670947
230    0.383474    0.766008      1.1111  0.000656067
240    0.380348    0.764822     2.35708  0.000376631
250    0.375941     0.76315     1.07036  0.000233962
260    0.375669    0.763046     1.75261  0.000511032
270    0.365721     0.75927     2.11673  0.000538194
280    0.364905    0.758961     1.91364  0.000129566
290    0.363129    0.758287     1.99334  0.000145796
300    0.361989    0.757854     2.39451  7.67797e-05
310    0.361594    0.757704     1.02715  0.000349486
320    0.354999    0.755201      1.4295  0.000617331
330    0.349247    0.753018     2.59612  0.000479411
340    0.345411    0.751562     2.15417  0.000105277
350    0.347142    0.752219     2.83521  0.000277519
360     0.33986    0.749456     3.07755  0.000385112
370    0.339439    0.749296     3.43865  0.000241022
380     0.33504    0.747626     3.96238  0.000316632
390    0.333107    0.746892     2.07184  0.000268975
400    0.329661    0.745585   0.0613122  0.000177802
410    0.329551    0.745543     1.38719  0.000345749
420    0.322746     0.74296     2.35331  0.000378507
430     0.32198     0.74267     3.47876  2.24888e-05
440    0.322296    0.742789     3.47742  0.000271732
450    0.316546    0.740607      1.5076  0.000467193
460    0.312952    0.739243     2.99548  0.000218627
470    0.312173    0.738948     2.83328  2.36198e-05
480     0.31248    0.739064     2.39016  0.000143369
490    0.309306    0.737859     2.38988  0.000159843
500    0.309283     0.73785     2.63105  0.000405662
510    0.301193     0.73478     2.95388  0.000487916
520    0.299524    0.734147     2.55102  0.000172438
530    0.297744    0.733471     3.67534  0.000517298
540    0.289178     0.73022     3.35603  0.000342907
550    0.290886    0.730868     4.35955  1.53437e-05
560    0.288872    0.730104     3.55505  0.000240093
570    0.286084    0.729046     5.16377  0.000526157
580    0.278348     0.72611     4.11952  0.000351049
590    0.279063    0.726381     4.39962  -0.000132006
600    0.280989    0.727112     3.87588  0.000225921
610    0.274545    0.724666      4.0373  0.000463015
620    0.271728    0.723597     4.35853  0.000110906
630    0.272326    0.723824     4.59922  0.000282687
640    0.266074    0.721452     4.31866  0.000509682
650    0.262133    0.719956      3.9979  0.000217384
660    0.261727    0.719801     5.76639  -0.000181146
670    0.265756    0.721331     5.92569  -4.25279e-05
680    0.262577    0.720124     5.32276  0.000168143
690    0.262393    0.720054     6.12624  0.000274299
700    0.257091    0.718042     6.64974  0.00033031
710    0.255787    0.717547     4.59863  4.14133e-05
720    0.256263    0.717728     5.24116  0.000259216
730    0.250602    0.715579     5.40258  0.000477276
740    0.246718    0.714105     3.79417  0.00036095
750    0.243383     0.71284     4.35735  -6.36831e-05
760    0.247991    0.714588     3.02778  -0.000136184
770    0.246107    0.713873     3.38978  7.07269e-05
780    0.246577    0.714052     3.02766  0.000318108
790    0.239745    0.711459     3.02857  0.000464571
800    0.237285    0.710525     4.51594  2.67923e-05
810    0.239209    0.711255     3.71097  -5.17711e-05
820    0.238321    0.710918     5.27943  0.00030333
830    0.233142    0.708953     3.35007  0.000117409
840    0.235973    0.710027     4.39467  -6.28501e-05
850    0.234399     0.70943     2.42379  0.00027638
860    0.230445    0.707929     2.62492  0.000112563
870    0.232148    0.708575     2.58371  -3.76999e-07
880    0.230452    0.707932     3.06589  0.000254975
890    0.227049     0.70664     3.38912  0.000340754
900    0.223637    0.705345     2.14267  0.000187821
910    0.223292    0.705214      2.6637  0.000120032
920    0.221237    0.704434     3.06589  0.000234292
930    0.218606    0.703436      1.3368  0.000223377
940    0.216769    0.702739     2.42229  5.81309e-05
950    0.217444    0.702995     1.41682  0.00017854
960    0.213198    0.701383     1.25508  0.000505238
970    0.207339     0.69916     1.29724  0.000139215
980    0.210414    0.700327     3.06518  8.25442e-05
990    0.205688    0.698533    0.854778  0.000128324
1000    0.207848    0.699353     1.85853  -8.96193e-05
1010     0.20748    0.699213     1.09445  0.00022684
1020    0.203311    0.697631     1.57631  0.000492375
1030    0.197633    0.695476     3.30693  7.77699e-05
1040    0.201755     0.69704     1.77701  4.38005e-05
1050    0.196757    0.695143     2.66181  0.000182207
1060    0.198111    0.695657     1.45591  -0.00020508
1070    0.200859      0.6967     2.73975  -1.99139e-05
1080     0.19851    0.695809   -0.797039  0.000339686
1090    0.194065    0.694122     2.70102  0.00041013
1100    0.190307    0.692695   -0.153998  0.000160825
1110    0.190848    0.692901     1.01192  0.000126471
1120    0.187778    0.691735    0.649952  7.99373e-05
1130     0.18925    0.692294   0.0453702  9.78954e-05
1140     0.18582    0.690992     1.29201  0.000419317
1150    0.180863    0.689111    0.569459  0.000145143
1160    0.182917    0.689891     1.29233  -6.50331e-05
1170    0.182164    0.689605     2.69909  0.000257197
1180    0.177773    0.687938     1.77403  0.00017543
1190    0.178655    0.688273     1.61293  8.79467e-05
1200    0.176014    0.687271    0.890293  0.000235061
1210    0.173954    0.686489     1.57364  0.000229784
1220    0.171418    0.685526    0.367383  2.37532e-05
1230    0.173479    0.686309     2.05468  0.000136239
1240    0.168693    0.684492     1.93451  0.000384554
1250    0.165788     0.68339     1.33157  -9.38676e-05
1260    0.170571    0.685205     2.25542  -1.66863e-05
1270    0.166122    0.683516     2.65969  0.000208214
1280    0.166407    0.683624     1.41183  0.000167406
1290    0.162774    0.682246     1.65315  7.23675e-05
1300    0.164959    0.683075     1.20971  0.000233663
1310      0.1581    0.680472    0.889429  0.00025159
1320    0.159927    0.681165    0.727658  -5.16839e-05
1330    0.159134    0.680864     1.04991  0.000228772
1340    0.155352    0.679429     2.01508  0.000366698
1350      0.1518    0.678081     2.69866  0.000199929
1360    0.151353    0.677911    0.567378  7.46913e-05
1370    0.150306    0.677514     2.09471  0.000134818
1380    0.148657    0.676888     1.00944  3.29643e-05
1390    0.149647    0.677264     2.73716  0.000249793
1400    0.143661    0.674992       2.939  0.000213813
1410    0.145371    0.675641     2.13395  0.000130294
1420    0.141055    0.674003     2.45663  0.000220808
1430    0.140954    0.673965     2.65671  -4.4287e-05
1440    0.141941    0.674339     2.69642  -9.87746e-05
1450     0.14293    0.674714     2.69583  0.000324979
1460    0.135441    0.671872     1.85378  0.000258547
1470    0.137759    0.672752     2.17343  -0.000189541
1480    0.139232    0.673311     1.89141  0.000247586
1490    0.132807    0.670872     3.38016  0.000278108
1500     0.13367      0.6712     3.01832  0.000157346
1510     0.12966    0.669678      2.4551  0.000218485
1520      0.1293    0.669541     3.33986  -6.67572e-07
1530    0.129674    0.669683     3.66077  2.37927e-05
1540    0.128825    0.669361     3.37902  7.2784e-05
1550    0.128218    0.669131     3.50065  0.000134284
1560    0.126139    0.668342     2.69662  -6.18763e-05
1570    0.129456      0.6696     1.93164  0.000245458
1580     0.12123    0.666478     1.85217  0.000177722
1590    0.125901    0.668251      2.2135  -1.19906e-05
1600     0.12147    0.666569     2.97829  -0.000142042
1610    0.128742    0.669329     2.97522  2.49941e-05
1620     0.12097     0.66638     4.10283  0.000518563
1630    0.118371    0.665393     2.77684  -9.24855e-05
1640    0.122819    0.667082      2.8149  -9.22576e-05
1650    0.120216    0.666094      2.9764  4.35889e-05
1660    0.121948    0.666751     2.57331  3.14802e-05
1670    0.119586    0.665855     2.65435  5.61759e-05
1680    0.120824    0.666324     3.65873  0.000305552
1690    0.113475    0.663535     4.78571  0.000442858
1700    0.111967    0.662963     4.14208  -0.000111064
1710    0.115697    0.664378     3.77913  -4.85353e-05
1720    0.112938    0.663331     2.89394  0.000288756
1730    0.109921    0.662186     3.65837  0.00017667
1740    0.109404     0.66199     4.06033  6.43581e-05
1750    0.108634    0.661698     4.54301  -0.000136317
1760    0.112131    0.663025     3.69746  -4.83863e-05
1770    0.109602    0.662065     4.26068  5.17238e-05
1780    0.111096    0.662632     4.90349  6.47269e-05
1790    0.108307    0.661574     4.38167  -3.62467e-05
1800    0.111821    0.662907     4.22018  0.000197691
1810    0.104354    0.660073     4.02053  0.000146918
1820    0.108883    0.661792     4.30024  -0.00013053
1830    0.106964    0.661064     4.90352  0.000122293
1840    0.106437    0.660864     3.97964  -0.000175642
1850    0.110477    0.662397     3.33464  -0.000118571
1860    0.108808    0.661764     2.73151  9.07183e-05
1870    0.108663    0.661709     2.97322  0.000161123
1880    0.105586    0.660541     4.09946  -4.49121e-06
1890    0.108752    0.661743     4.33964  -7.43698e-05
1900    0.107073    0.661105     3.97779  0.000187295
1910    0.105007    0.660321     3.13389  0.000251747
1920    0.102038    0.659195     4.86338  -2.33058e-05
1930    0.105473    0.660498     2.81184  -1.01216e-05
1940    0.102241    0.659271     4.62048  0.00014369
1950    0.102599    0.659407     4.66146  -6.80566e-05
1960    0.103602    0.659788     4.86251  -9.39772e-05
1970    0.104478    0.660121     4.17732  7.99373e-05
1980    0.102003    0.659181     4.66134  -0.00015258
1990     0.10753    0.661279     5.38287  -0.000191277
2000    0.105829    0.660633     5.54323  0.000371096
2010    0.100108    0.658462     4.69984  1.52495e-05
2020    0.105524    0.660517     3.97406  -7.4904e-05
2030    0.101606    0.659031     4.21641  0.000242756
2040    0.100668    0.658675      4.2562  0.000256577
2050   0.0964747    0.657083     4.09596  0.000107177
2060   0.0985249    0.657861     4.77892  9.96441e-06
2070   0.0962754    0.657007     4.73897  8.81035e-05
2080   0.0967629    0.657192      3.4915  0.000160464
2090   0.0930661    0.655789     5.42349  0.000127861
2100   0.0942056    0.656222     3.49232  -0.000264869
2110   0.0983635      0.6578     3.97351  -0.000127515
2120   0.0967559     0.65719     3.61159  0.000272729
2130   0.0929089     0.65573     3.33149  -0.000147907
2140   0.0997141    0.658312     4.85713  -0.00032556
2150   0.0994201    0.658201     3.93231  0.000339568
2160   0.0929227    0.655735     3.12977  0.00011543
2170   0.0971115    0.657325     3.08844  3.98904e-06
2180   0.0928429    0.655705     3.81257  0.000162426
2190    0.093863    0.656092     3.93278  5.70316e-05
2200   0.0917023    0.655272       4.094  -0.000228544
2210   0.0984338    0.657827     4.69505  3.07422e-05
2220   0.0910875    0.655038     4.33418  0.000429329
2230   0.0898473    0.654568     5.33911  -3.57911e-05
2240   0.0918033     0.65531     5.01777  0.000171261
2250   0.0864221    0.653268     5.78216  0.000111127
2260   0.0895808    0.654467     7.26938  0.000272525
2270   0.0809716    0.651199      6.4263  -8.26698e-05
2280   0.0912341    0.655094       5.982  -0.000276192
2290   0.0864954    0.653296     5.98294  9.82802e-05
2300   0.0892685    0.654348     6.50565  -6.23792e-05
2310    0.087743    0.653769     6.62598  -0.000103243
2320   0.0913334    0.655132     6.14239  -8.97292e-05
2330   0.0895376     0.65445     6.30346  0.000186573
2340    0.087602    0.653715     5.37906  5.18572e-05
2350   0.0885004    0.654056     5.82081  -0.000178029
2360   0.0911625    0.655067     4.77448  -0.000246219
2370   0.0934248    0.655925     5.77945  -6.35885e-05
2380   0.0924343     0.65555      5.2561  9.23678e-05
2390   0.0915775    0.655224     5.41764  0.000147067
2400    0.089493    0.654433     6.30212  0.00010651
2410   0.0894473    0.654416     6.30193  0.000120565
2420   0.0870817    0.653518     6.30201  0.000209548
2430   0.0852563    0.652825     6.74509  7.32783e-05
2440   0.0856161    0.652962     7.78934  1.88068e-05
2450   0.0848802    0.652682     7.78919  0.000142309
2460   0.0827699    0.651882     6.34145  -5.66237e-05
2470   0.0860126    0.653112     6.42182  -0.000262788
2480   0.0880257    0.653876     7.02417  -0.000263557
2490   0.0912838    0.655113     7.82729  -8.99099e-06
2500   0.0882055    0.653945     7.90869  -6.47586e-05
2510   0.0925789    0.655604     7.02256  -0.000105921
2520   0.0903239    0.654749     7.10411  0.00019119
2530   0.0887552    0.654153     6.82217  5.99921e-05
2540   0.0891241    0.654293     8.10821  0.000171378
2550   0.0853276    0.652852     7.14446  -5.09225e-05
2560   0.0901425     0.65468     7.58597  -0.000113177
2570   0.0875911    0.653711     7.82757  0.000171865
2580   0.0867052    0.653375     7.74699  -0.0003581
2590   0.0947531     0.65643      8.4281  -8.97534e-06
2600   0.0868847    0.653443     8.79187  0.000262929
2610   0.0894945    0.654434     8.58909  0.000117173
2620   0.0845413    0.652554     7.58546  9.59326e-05
2630   0.0875759    0.653706     7.74523  -0.000212524
2640   0.0887917    0.654167     7.66446  -0.000114676
2650   0.0898694    0.654576     9.63421  -3.04516e-05
2660   0.0894008    0.654398     9.03108  0.000138712
2670   0.0870952    0.653523     7.54354  0.000358061
2680   0.0822396     0.65168     8.14734  0.000139498
2690   0.0843052    0.652464     9.15223  -0.000143102
2700   0.0851016    0.652767      8.0661  -0.000101021
2710   0.0863256    0.653231     8.18576  2.66667e-05
2720   0.0845683    0.652564     8.06543  4.07696e-05
2730   0.0855102    0.652922     8.50652  -6.58345e-05
2740    0.085885    0.653064     8.06445  0.000176514
2750     0.08198    0.651582     8.34714  0.000233883
2760   0.0812073    0.651289      9.0704  3.44247e-05
2770   0.0812915     0.65132     8.26622  -0.000323659
2780   0.0876805    0.653745     7.98337  9.91758e-05
2790    0.079308    0.650568     7.34209  5.06453e-06
2800   0.0875792    0.653707     8.66585  -0.000159262
2810   0.0824932    0.651777     8.62728  0.000213969
2820   0.0832998    0.652083      7.9433  2.74599e-05
2830    0.081944    0.651568      8.1847  -5.21161e-05
2840   0.0843421    0.652478     8.14357  -0.000109933
2850   0.0841427    0.652403     9.30921  0.000164916
2860   0.0810438    0.651226     7.98317  0.000114441
2870   0.0818539    0.651534     8.38438  -8.84019e-05
2880   0.0828118    0.651897     8.14279  0.000311504
2890   0.0756238    0.649169     9.31047  0.000253498
2900   0.0777419    0.649973     7.38012  -9.53358e-05
2910   0.0775305    0.649893     8.30413  0.000276852
2920   0.0722048    0.647872     8.42524  0.000269949
2930   0.0721315    0.647844     8.86836  -5.85869e-05
2940   0.0733766    0.648317     8.34423  -3.66863e-05
2950   0.0728652    0.648122     7.17824  0.000132062
2960   0.0707354    0.647314     7.74138  0.00014706
2970    0.069924    0.647006     7.78165  0.000154959
2980   0.0676362    0.646138     8.18313  -0.000176765
2990   0.0734593    0.648348     7.17691  -6.58579e-05
3000   0.0689533    0.646638     8.50401  0.000369839
3010   0.0660626    0.645541     7.01631  -4.39968e-05
3020   0.0698333    0.646972     7.73836  0.000186423
3030   0.0623341    0.644126     8.14235  0.000178712
3040    0.066259    0.645615     8.14114  -0.000221869
3050   0.0667715     0.64581     7.57867  -2.89358e-05
3060   0.0668377    0.645835     8.38179  0.000179937
3070   0.0631727    0.644444     7.94067  6.80253e-05
3080   0.0654772    0.645318     8.38179  -1.36711e-05
3090   0.0634461    0.644548     8.30161  0.000113435
3100   0.0632085    0.644457     8.13996  0.000173954
3110   0.0599671    0.643227     8.94497  0.000392273
3120   0.0553631     0.64148      8.7042  0.000137283
3130   0.0572214    0.642185     9.50732  -3.52493e-05
3140    0.056068    0.641747     9.22636  7.77464e-05
3150   0.0556665    0.641595     9.99028  -2.78918e-05
3160   0.0566259    0.641959     9.70791  0.000146282
3170   0.0527408    0.640485     8.86401  0.000116058
3180   0.0543047    0.641078     9.14567  -0.000232619
3190   0.0573932     0.64225     8.62198  7.10955e-05
3200   0.0528828    0.640538     8.54184  0.000200291
3210   0.0533874     0.64073     9.02452  -9.6333e-05
3220   0.0548095     0.64127     7.73769  0.000239623
3230   0.0485949    0.638911     8.90423  0.000132658
3240   0.0521563    0.640263     9.10423  -0.000226392
3250   0.0531228     0.64063     8.82244  0.000187169
3260   0.0484129    0.638842     9.38605  7.9686e-05
3270   0.0515291    0.640025     9.70724  -0.000150404
3280    0.051421    0.639984     10.4305  0.000218916
3290   0.0471507    0.638363     9.26572  -4.32432e-05
3300   0.0522859    0.640312     8.90199  -7.3522e-05
3310   0.0486212    0.638921       9.626  0.000204303
3320   0.0481998    0.638761     9.70598  0.000212894
3330   0.0443633    0.637305      9.5864  5.79899e-05
3340     0.04704    0.638321     8.86153  8.97527e-05
3350   0.0425682    0.636624     9.10376  0.000144013
3360   0.0441598    0.637228      9.8672  9.81078e-05
3370   0.0406061    0.635879     10.0283  0.000355854
3380   0.0370427    0.634527     9.78679  0.000169093
3390   0.0372242    0.634596     10.9521  -3.38517e-05
3400   0.0377197    0.634784     10.9514  0.000193718
3410   0.0333498    0.633125     10.3495  0.000469086
3420    0.028338    0.631223     10.3894  0.000257841
3430    0.028193    0.631168     10.3897  -9.07732e-06
3440   0.0285195    0.631292     10.1883  -4.85434e-05
3450   0.0291639    0.631536     11.3947  3.04122e-05
3460   0.0279113    0.631061     10.8722  -5.67727e-05
3470   0.0302994    0.631967     11.5149  0.000125772
3480   0.0253959    0.630106     10.8323  3.02474e-05
3490   0.0296944    0.631738     11.3139  -4.85119e-05
3500   0.0263661    0.630475     10.2283  7.83039e-05
3510   0.0281283    0.631143     10.4285  -8.95187e-07
3520    0.026384    0.630481     11.2331  3.07892e-05
3530   0.0275125     0.63091     11.9966  -0.000105018
3540   0.0284844    0.631278     11.6343  7.10797e-05
3550    0.026091     0.63037     11.5141  -4.13898e-05
3560   0.0293122    0.631593     11.9156  -8.55885e-07
3570   0.0261081    0.630377     11.0311  0.000433703
3580   0.0206381    0.628301     11.0722  0.000225065
3590   0.0216068    0.628668      10.227  -0.000242489
3600   0.0254879    0.630141     11.2318  -0.00012969
3610   0.0242006    0.629653     10.5084  0.000234323
3620   0.0208014    0.628363     11.2324  0.000372965
3630   0.0167413    0.626822     11.0317  -8.16639e-06
3640   0.0209648    0.628425     11.5133  -2.38476e-05
3650   0.0172182    0.627003     12.1165  0.000424209
3660   0.0124806    0.625205     11.7155  0.000106745
3670   0.0150833    0.626192     12.0366  -0.000236098
3680   0.0172025    0.626997     12.4377  0.000451732
3690  0.00604869    0.622763     11.1532  0.000345363
3700   0.0102953    0.624375     11.9154  -0.000474676
3710   0.0155422    0.626366     11.6731  -0.000212556
3720   0.0145464    0.625989     11.8335  0.000512289
3730  0.00529643    0.622478     11.9562  0.000215791
3740   0.0102306    0.624351     11.1909  -0.00022106
3750  0.00971764    0.624156     11.8744  0.000167428
3760  0.00688198     0.62308     11.7538  4.32745e-05
3770  0.00885215    0.623827     11.5126  -1.44405e-05
3780  0.00717079    0.623189     11.4322  -1.48174e-05
3790   0.0091485     0.62394     10.8283  8.5591e-05
3800  0.00545898     0.62254     11.5519  0.000311041
3810  0.00292768    0.621579      12.437  2.41853e-06
3820  0.00541061    0.622521     11.2704  0.000178917
3830  -0.000650648    0.620221     11.2307  0.000481108
3840  -0.00421155    0.618869     12.0757  0.000230538
3850  -0.00526141    0.618471     11.8336  -4.39733e-06
3860  -0.0041236    0.618903     12.1146  5.48096e-05
3870  -0.0063576    0.618055     11.0693  0.000206863
3880  -0.00826086    0.617332     11.6318  -5.48646e-05
3890  -0.00526031    0.618471     11.3091  8.10444e-05
3900  -0.00988175    0.616717     12.3552  -5.52415e-05
3910  -0.00415548    0.618891     11.1075  -0.000343848
3920  -0.00300479    0.619327     11.7908  0.00040461
3930  -0.0122477    0.615819     11.5514  0.000379474
3940  -0.0105943    0.616447     12.0728  -3.73695e-05
3950  -0.0115003    0.616103      10.585  0.000270648
3960  -0.0160072    0.614392       11.35  -0.000166243
3970  -0.00817543    0.617365     10.3432  6.61877e-05
3980   -0.017331     0.61389     11.3491  0.00034044
3990  -0.0149842    0.614781     10.7452  5.80527e-05
4000   -0.018492    0.613449     10.5445  0.000575862
4010  -0.0265015     0.61041     10.2241  0.000179505
4020  -0.0220822    0.612087      10.464  -0.000330036
4030  -0.0199008    0.612915     10.1013  0.00025883
4040  -0.0272588    0.610122     10.5448  0.000371912
4050   -0.027339    0.610092      9.4187  5.15744e-05
4060  -0.0282902    0.609731     10.4641  0.000295933
4070  -0.0332577    0.607845     11.7518  0.000191747
4080  -0.0321252    0.608275     12.5551  -8.41785e-06
4090  -0.0330893    0.607909     12.0323  3.52336e-05
4100  -0.0328299    0.608008     10.7456  0.000140809
4110  -0.0359055     0.60684     10.9068  3.54378e-05
4120  -0.0335386    0.607739     9.69915  8.89361e-05
4130  -0.0376842    0.606165     11.5492  0.000194598
4140  -0.0374306    0.606262     10.5432  -0.000131559
4150   -0.035053    0.607164     11.6284  6.30545e-05
4160  -0.0386917    0.605783     11.8707  0.000373318
4170  -0.0425194     0.60433      10.986  0.000143479
4180  -0.0415612    0.604694     11.6685  0.000162207
4190  -0.0457635    0.603099     11.7903  0.000108826
4200  -0.0437378    0.603868     11.5082  0.000207994
4210  -0.0499234     0.60152     12.1518  0.000207994
4220  -0.0478976    0.602289     11.5475  -7.74324e-05
4230  -0.0483748    0.602108      11.829   6.574e-05
4240  -0.0492124     0.60179     10.9045  0.000218877
4250  -0.0527523    0.600447       12.03  7.52259e-05
4260   -0.050717    0.601219     11.9498  0.000166227
4270  -0.0560768    0.599185     12.1109  0.000374182
4280  -0.0582006    0.598379     12.5531  0.000276121
4290  -0.0615993    0.597089     12.3118  0.000276977
4300  -0.0637401    0.596276     12.0702  0.000123526
4310  -0.0640698    0.596151     11.9495  2.39421e-05
4320   -0.064219    0.596095     11.8287  0.000233876
4330  -0.0687473    0.594376     11.1859  0.000234299
4340   -0.068905    0.594316     12.1508  -0.000194779
4350  -0.0648517    0.595854     11.3052  -8.50491e-05
4360   -0.067204    0.594962     11.5066  0.000208096
4370  -0.0690136    0.594275     12.5119  6.16256e-05
4380  -0.0684365    0.594494     12.2705  0.000135823
4390  -0.0717301    0.593244     12.2706  0.00028377
4400  -0.0741119     0.59234     12.2308  -0.000140809
4410  -0.0689139    0.594313     12.5914  0.000257966
4420  -0.0792712    0.590382     13.0753  0.000285363
4430  -0.0746212    0.592147      12.712  -0.000186738
4440  -0.0755365    0.591799     12.6725  0.000119663
4450  -0.0770144    0.591238     13.0342  1.73382e-05
4460  -0.0758832    0.591668     12.1897  -0.000132038
4470  -0.0743737    0.592241     11.9884  0.000232988
4480   -0.080543    0.589899     12.5919  0.000270711
4490  -0.0797879    0.590186      12.431  -7.5689e-05
4500  -0.0790292    0.590474     12.3507  7.47703e-05
4510  -0.0812833    0.589618     12.0692  -6.67922e-05
4520  -0.0776934    0.590981     10.7017  -0.000123275
4530  -0.0788178    0.590554     12.7925  0.000179034
4540   -0.081274    0.589622     11.3451  -1.0255e-05
4550  -0.0786127    0.590632     12.0292  5.67492e-05
4560   -0.082409    0.589191     11.6672   5.638e-05
4570  -0.0797403    0.590204     12.3096  -0.000420055
4580  -0.0740079    0.592379     11.5854  -0.00014402
4590  -0.0768599    0.591297     12.6709  0.000247405
4600   -0.078956    0.590501     12.9931  0.00015243
4610  -0.0799085     0.59014     12.3495  -0.000116121
4620  -0.0766336    0.591383     13.3139  0.000153561
4630  -0.0829797    0.588974     13.2348  0.000191842
4640  -0.0804704    0.589927     13.4755  -5.80367e-05
4650   -0.081819    0.589415     12.7515  -7.79975e-05
4660  -0.0789105    0.590519     12.8313  -0.000165206
4670  -0.0785149    0.590669     13.5142  0.00026179
4680  -0.0841463    0.588531     12.3489  0.000379113
4690  -0.0860971    0.587791     12.5098  -0.000107138
4700  -0.0820035    0.589345     12.9114  5.65499e-07
4710  -0.0861084    0.587787     13.3543  0.000244751
4720  -0.0868985    0.587487     12.4289  3.98587e-05
4730  -0.0869056    0.587484     12.5089  -3.861e-05
4740  -0.0861263     0.58778     13.0317  0.00012885
4750  -0.0894826    0.586506     13.3131  0.000128944
4760  -0.0887052    0.586801     13.5943  0.000100126
4770  -0.0914851    0.585746     14.9618  4.07305e-05
4780  -0.0895198    0.586492     13.3124  0.000120801
4790  -0.0939011    0.584829     13.3929  0.000170365
4800  -0.0929271    0.585199     13.1916  -0.000147413
4810  -0.0909529    0.585948     12.9904  7.18333e-05
4820  -0.0943638    0.584654     12.3068  0.000361735
4830  -0.0981876    0.583202     12.2674  -0.000278492
4840  -0.0887939    0.586768     12.7886  -0.000218005
4850  -0.0938275    0.584857     11.4625  0.000353357
4860  -0.0958611    0.584085     12.0255  3.23597e-05
4870  -0.0944747    0.584612     11.4622  0.00010355
4880  -0.0979321    0.583299     11.3421  -4.83472e-05
4890  -0.0935077    0.584979     11.3409  -9.85004e-05
4900  -0.0959621    0.584047     11.9037  0.000245944
4910  -0.0984266    0.583112      11.622  0.000501492
4920   -0.105992     0.58024      12.146  9.48805e-05
4930   -0.100324    0.582391     12.6679  -0.000220361
4940   -0.101585    0.581913     11.9845  -1.70399e-05
4950  -0.0999834    0.582521     12.0646  3.45033e-05
4960   -0.102275    0.581651     11.8232  0.000291292
4970   -0.105809     0.58031     11.5417  0.000251135
4980   -0.107297    0.579745     11.6629  5.62072e-05
4990   -0.106933    0.579883     11.8632  -0.00013872
